# SOURCE  = 'Quimby et al. 2018' /                                                
# OBJECT  = 'PTF12dam'           /                                                
# Z       =             0.107500 / wavelengths in OBSERVER FRAME                 
# NORM    =          1.48833E-16 / fluxes divided by norm                         
# CLIPPED =                    1 / galaxy emission lines removed                  
# SMOOTHED=                    1 / spectrum has been smoothed                     
# COLUMN01= 'Wavelength (Angstrom)' /                                             
# COLUMN02= 'Flux Density (erg/s/cm2/A)' /                                        
# COLUMN03= 'Flux Density Uncertainty (erg/s/cm2/A)' /                            
# END                                                                             
# 
# 
# 
# 
# 
# 
# 
# 
# 
# 
# Converted to Observer Frame using z=0.1075
 3879.42583 1.4275945 0.0618549
 3883.31392 1.3898534 0.0403032
 3887.18973 1.3765289 0.0315770
 3891.07812 1.3852272 0.0280309
 3894.97848 1.4046309 0.0263685
 3898.86657 1.4487791 0.0262395
 3902.76693 1.4651453 0.0261247
 3906.66760 1.4733902 0.0260070
 3910.58024 1.4888505 0.0259433
 3914.49288 1.4805591 0.0259223
 3918.40553 1.4572108 0.0259991
 3922.31847 1.4439596 0.0259931
 3926.24339 1.4286748 0.0260574
 3930.16831 1.4302082 0.0252844
 3934.10551 1.4391496 0.0250418
 3938.03043 1.4161066 0.0248331
 3941.96792 1.4069777 0.0245619
 3945.91740 1.4049097 0.0243227
 3949.85460 1.3949355 0.0240312
 3953.81635 1.4037936 0.0237275
 3957.76582 1.4008353 0.0234872
 3961.72758 1.3844295 0.0233121
 3965.68933 1.3854184 0.0231681
 3969.65108 1.4054117 0.0229435
 3973.62511 1.3936396 0.0228279
 3977.59914 1.3828011 0.0226476
 3981.57317 1.3688900 0.0225505
 3985.55948 1.3526793 0.0224223
 3989.54579 1.3597656 0.0222038
 3993.53210 1.3567208 0.0220284
 3997.51840 1.3411926 0.0219952
 4001.51699 1.3520772 0.0220540
 4005.52785 1.3724270 0.0219796
 4009.52644 1.3732246 0.0219136
 4013.53730 1.3690130 0.0217768
 4017.54816 1.3760389 0.0217101
 4021.57130 1.3700757 0.0217203
 4025.59445 1.3831772 0.0215632
 4029.61759 1.3775187 0.0213947
 4033.65300 1.3818592 0.0211708
 4037.67584 1.3741786 0.0210694
 4041.72354 1.3734964 0.0208941
 4045.75896 1.3692569 0.0207284
 4049.80665 1.3657787 0.0205371
 4053.85435 1.3748660 0.0203847
 4057.91402 1.3679537 0.0202918
 4061.97400 1.3809236 0.0200890
 4066.03397 1.3802979 0.0199347
 4070.09394 1.3817832 0.0197448
 4074.16589 1.3733267 0.0196728
 4078.23814 1.3720504 0.0195444
 4082.32267 1.3798627 0.0194008
 4086.40720 1.3901931 0.0193164
 4090.49143 1.4039139 0.0193202
 4094.57596 1.4093734 0.0194106
 4098.67276 1.4202435 0.0193554
 4102.76927 1.4264719 0.0192751
 4106.87835 1.4308777 0.0191018
 4110.98714 1.4280875 0.0196013
 4115.09622 1.4302649 0.0212183
 4119.20530 1.4410858 0.0245329
 4123.32636 1.4441811 0.0211791
 4127.44772 1.4448843 0.0224225
 4131.58106 1.4367980 0.0244791
 4135.71470 1.3978541 0.0251546
 4139.84804 1.3913915 0.0229688
 4143.99396 1.3960830 0.0207041
 4148.13957 1.3910389 0.0196043
 4152.28549 1.4119788 0.0203504
 4156.43110 1.4251846 0.0185545
 4160.58930 1.4299300 0.0174985
 4164.74719 1.4397874 0.0174062
 4168.91736 1.4578650 0.0177696
 4173.08783 1.4701041 0.0176950
 4177.25801 1.4838610 0.0176354
 4181.44075 1.4814781 0.0175344
 4185.61093 1.4649569 0.0170682
 4189.80565 1.4623572 0.0169086
 4193.98840 1.4511030 0.0167873
 4198.18313 1.4411992 0.0166866
 4202.39013 1.4545310 0.0166236
 4206.58516 1.4638078 0.0165942
 4210.79216 1.4847691 0.0165107
 4214.99917 1.5006016 0.0164293
 4219.21845 1.4970046 0.0164017
 4223.43803 1.4963495 0.0164078
 4227.66959 1.4925146 0.0163009
 4231.88887 1.4987929 0.0162408
 4236.12043 1.5143073 0.0161818
 4240.36426 1.5212137 0.0162012
 4244.59612 1.5167277 0.0161757
 4248.83996 1.5292333 0.0160724
 4253.09607 1.5364799 0.0159457
 4257.35219 1.5352407 0.0158700
 4261.60830 1.5273027 0.0154229
 4265.86442 1.5221575 0.0153165
 4270.13281 1.5233618 0.0155572
 4274.40120 1.5263476 0.0154535
 4278.68217 1.5167246 0.0154128
 4282.96284 1.5211397 0.0153425
 4287.24351 1.5260037 0.0153171
 4291.52418 1.5395975 0.0152475
 4295.81712 1.5487288 0.0148498
 4300.11007 1.5424287 0.0148184
 4304.41530 1.5424154 0.0151273
 4308.72052 1.5401810 0.0150737
 4313.02574 1.5503377 0.0150618
 4317.34295 1.5586112 0.0150903
 4321.66045 1.5674990 0.0147992
 4325.97795 1.5782529 0.0148188
 4330.30773 1.6002469 0.0147991
 4334.63751 1.6086274 0.0147630
 4338.97957 1.6127183 0.0150727
 4343.30935 1.6266379 0.0149843
 4347.65140 1.6417841 0.0146058
 4352.00544 1.6512055 0.0145797
 4356.35977 1.6619825 0.0145547
 4360.71411 1.6618507 0.0145310
 4365.06844 1.6648022 0.0148675
 4369.43505 1.6647233 0.0148620
 4373.80137 1.6494633 0.0144682
 4378.18026 1.6437864 0.0143403
 4382.55915 1.6435171 0.0142310
 4386.95001 1.6405163 0.0141463
 4391.32890 1.6348406 0.0140794
 4395.72007 1.6332910 0.0140623
 4400.12322 1.6315001 0.0140127
 4404.51438 1.6352988 0.0139597
 4408.91783 1.6238827 0.0139307
 4413.33325 1.6084584 0.0138609
 4417.74897 1.6059121 0.0138217
 4422.16470 1.5959485 0.0137365
 4426.59240 1.5814803 0.0136762
 4431.00812 1.5682847 0.0136368
 4435.44810 1.5692633 0.0135813
 4439.87610 1.5707526 0.0135941
 4444.31607 1.5674365 0.0135199
 4448.76863 1.5624672 0.0134455
 4453.20861 1.5627385 0.0133763
 4457.66116 1.5776383 0.0133221
 4462.12569 1.5823530 0.0133767
 4466.59053 1.5789831 0.0133495
 4471.05506 1.5750543 0.0133300
 4475.53217 1.5655580 0.0133018
 4479.99670 1.5453327 0.0129960
 4484.48579 1.5309416 0.0132642
 4488.96290 1.5195972 0.0131879
 4493.45199 1.5222368 0.0131544
 4497.95335 1.5335265 0.0129057
 4502.44274 1.5570581 0.0129570
 4506.95639 1.5809255 0.0132855
 4511.45775 1.6015180 0.0132717
 4515.97169 1.6195292 0.0130129
 4520.48534 1.6251382 0.0130468
 4525.01126 1.6413273 0.0132991
 4529.52490 1.6513691 0.0132608
 4534.06340 1.6569781 0.0129666
 4538.58932 1.6661264 0.0129456
 4543.13979 1.6638818 0.0132314
 4547.67799 1.6769150 0.0132919
 4552.22847 1.6771780 0.0131133
 4556.77924 1.6811559 0.0132425
 4561.32972 1.6778685 0.0144006
 4565.89247 1.6752197 0.0148461
 4570.46750 1.6911658 0.0150887
 4575.03026 1.6690292 0.0149054
 4579.60529 1.6485287 0.0143223
 4584.19260 1.6301819 0.0131518
 4588.76763 1.6256949 0.0127264
 4593.36721 1.5981927 0.0127205
 4597.95452 1.5693535 0.0124199
 4602.55411 1.5337163 0.0123391
 4607.15369 1.5123453 0.0122725
 4611.76556 1.4996047 0.0122235
 4616.37742 1.4737291 0.0121516
 4620.98928 1.4518999 0.0121249
 4625.61343 1.4595264 0.0120710
 4630.23757 1.4698179 0.0119916
 4634.87398 1.4694982 0.0119323
 4639.49813 1.4633240 0.0118612
 4644.14682 1.4510339 0.0118400
 4648.78324 1.4521799 0.0118375
 4653.43164 1.4530327 0.0118201
 4658.09261 1.4401016 0.0115645
 4662.75358 1.4330457 0.0117737
 4667.41456 1.4441884 0.0116936
 4672.07553 1.4418395 0.0113453
 4676.74848 1.4390823 0.0115526
 4681.43401 1.4268720 0.0115570
 4686.10726 1.4241918 0.0112700
 4690.79279 1.4270972 0.0115255
 4695.49030 1.4253058 0.0115725
 4700.18811 1.4184808 0.0113748
 4704.88591 1.4189723 0.0116634
 4709.58342 1.4401038 0.0116184
 4714.29350 1.4518957 0.0113599
 4719.01586 1.4746475 0.0116056
 4723.73793 1.4774022 0.0117493
 4728.46029 1.4929516 0.0114937
 4733.18235 1.5035386 0.0119913
 4737.91699 1.5087548 0.0122685
 4742.65133 1.5179704 0.0122160
 4747.39824 1.5241846 0.0125717
 4752.14486 1.5561678 0.0119860
 4756.90405 1.5765049 0.0117998
 4761.65067 1.6066794 0.0120163
 4766.42214 1.6112967 0.0120325
 4771.18104 1.6359836 0.0119010
 4775.95251 1.6534930 0.0120965
 4780.73596 1.6713564 0.0117215
 4785.51971 1.7004336 0.0116332
 4790.30316 1.7247427 0.0117633
 4795.08661 1.7568089 0.0117244
 4799.88263 1.7797323 0.0120081
 4804.69064 1.7917392 0.0118208
 4809.48636 1.7861691 0.0117952
 4814.30695 1.7944115 0.0118885
 4819.11495 1.7973208 0.0118988
 4823.93523 1.7971042 0.0119473
 4828.75582 1.8110542 0.0119585
 4833.58837 1.8254938 0.0119312
 4838.42093 1.8498962 0.0124039
 4843.26577 1.8690271 0.0131815
 4848.09863 1.8799531 0.0149317
 4852.95575 1.8604273 0.0131440
 4857.80058 1.8581311 0.0147208
 4862.65770 1.8372705 0.0163966
 4867.52709 1.8376586 0.0167760
 4872.39648 1.8248247 0.0146590
 4877.26588 1.8201802 0.0139313
 4882.14784 1.8131632 0.0129120
 4887.02951 1.8104173 0.0137079
 4891.91118 1.7992721 0.0123759
 4896.80513 1.7802709 0.0114823
 4901.69908 1.7473403 0.0116227
 4906.60530 1.7304926 0.0113203
 4911.51153 1.7026972 0.0114810
 4916.41775 1.6714368 0.0111976
 4921.33626 1.6489002 0.0113483
 4926.25476 1.6410275 0.0112922
 4931.18554 1.6312160 0.0110316
 4936.11632 1.6234871 0.0112042
 4941.05908 1.6071767 0.0109366
 4945.98986 1.5972596 0.0111079
 4950.94519 1.5862461 0.0108321
 4955.90053 1.5668052 0.0109931
 4960.85586 1.5611845 0.0107434
 4965.81120 1.5632668 0.0109687
 4970.77851 1.5796391 0.0107565
 4975.74612 1.5897559 0.0107580
 4980.72601 1.6062347 0.0107646
 4985.70590 1.6164107 0.0107645
 4990.68580 1.6195158 0.0107779
 4995.67766 1.6135334 0.0107482
 5000.68211 1.6003805 0.0107379
 5005.67428 1.5969894 0.0107796
 5010.69070 1.5937403 0.0107196
 5015.69515 1.5875251 0.0107839
 5020.71187 1.5902686 0.0109943
 5025.72859 1.5944530 0.0111134
 5030.75699 1.5891638 0.0111427
 5035.78599 1.5910066 0.0110533
 5040.82757 1.5916951 0.0108169
 5045.86855 1.5806937 0.0106878
 5050.90953 1.5760489 0.0105776
 5055.96308 1.5601035 0.0105557
 5061.01664 1.5387065 0.0104616
 5066.08217 1.5297385 0.0104283
 5071.14771 1.5097820 0.0103765
 5076.21324 1.4973986 0.0103534
 5081.29135 1.4945765 0.0103307
 5086.38144 1.4937261 0.0102903
 5091.45955 1.4829344 0.0102581
 5096.56221 1.4780735 0.0100344
 5101.65230 1.4801002 0.0102043
 5106.75497 1.4690157 0.0099794
 5111.85704 1.4728109 0.0101621
 5116.97168 1.4665606 0.0099476
 5122.08692 1.4751090 0.0100964
 5127.21354 1.4824742 0.0098265
 5132.34076 1.4923363 0.0099714
 5137.47996 1.4826274 0.0097469
 5142.60718 1.4833477 0.0097081
 5147.75836 1.4920808 0.0098783
 5152.89756 1.4829218 0.0096868
 5158.04934 1.4730884 0.0098586
 5163.21309 1.4625646 0.0096416
 5168.37684 1.4583495 0.0098240
 5173.54060 1.4515365 0.0096151
 5178.71693 1.4481107 0.0095835
 5183.89266 1.4335442 0.0095593
 5189.08097 1.4242553 0.0095864
 5194.26928 1.4332730 0.0097759
 5199.47016 1.4299017 0.0096041
 5204.67045 1.4327821 0.0096826
 5209.87134 1.4323111 0.0096869
 5215.08420 1.4369541 0.0096995
 5220.29707 1.4369435 0.0096859
 5225.52191 1.4426045 0.0097062
 5230.74735 1.4433671 0.0097432
 5235.97219 1.4450538 0.0097164
 5241.20961 1.4547839 0.0097560
 5246.44703 1.4503047 0.0097598
 5251.69702 1.4537685 0.0097444
 5256.94642 1.4462658 0.0097626
 5262.20840 1.4432613 0.0097342
 5267.47037 1.4371868 0.0097536
 5272.73234 1.4451206 0.0095648
 5278.00630 1.4485914 0.0097779
 5283.29283 1.4588535 0.0098261
 5288.56738 1.4589900 0.0097992
 5293.86589 1.4618251 0.0098269
 5299.15241 1.4515142 0.0097293
 5304.45092 1.4360592 0.0098323
 5309.76201 1.4165796 0.0100209
 5315.07309 1.3988587 0.0100255
 5320.38417 1.3876849 0.0103556
 5325.70724 1.3676852 0.0103223
 5331.03030 1.3600942 0.0098847
 5336.36594 1.3419878 0.0098381
 5341.70158 1.3211955 0.0095205
 5347.03722 1.2876078 0.0095196
 5352.38484 1.2591403 0.0095555
 5357.74503 1.2293388 0.0092987
 5363.09265 1.2129343 0.0091508
 5368.46482 1.2031844 0.0092370
 5373.82502 1.1988564 0.0090713
 5379.19719 1.2045892 0.0090546
 5384.58194 1.2174183 0.0091827
 5389.96669 1.2279510 0.0090262
 5395.36341 1.2448027 0.0090307
 5400.74816 1.2557081 0.0092071
 5406.15687 1.2764480 0.0090753
 5411.56617 1.3003699 0.0091279
 5416.97548 1.3321317 0.0091393
 5422.38419 1.3586826 0.0091406
 5427.81805 1.3808711 0.0091951
 5433.23933 1.3994919 0.0092343
 5438.67319 1.4164265 0.0092508
 5444.11903 1.4317977 0.0092836
 5449.55289 1.4449260 0.0093529
 5455.01070 1.4654481 0.0092277
 5460.45654 1.4907187 0.0094693
 5465.92693 1.5294751 0.0095583
 5471.38535 1.5526119 0.0096528
 5476.86832 1.5703794 0.0095360
 5482.33871 1.5775909 0.0098041
 5487.82108 1.5893847 0.0098719
 5493.31603 1.6091770 0.0097093
 5498.79900 1.6250575 0.0099413
 5504.30593 1.6438907 0.0100075
 5509.80087 1.6715117 0.0100649
 5515.32038 1.6995819 0.0098958
 5520.82790 1.7153630 0.0101373
 5526.34740 1.7260056 0.0101478
 5531.87889 1.7262774 0.0099573
 5537.41097 1.7390229 0.0100093
 5542.95502 1.7499679 0.0100317
 5548.48651 1.7525222 0.0102105
 5554.04314 1.7570786 0.0100397
 5559.59918 1.7721152 0.0100747
 5565.15581 1.7892635 0.0100887
 5570.72383 1.8003695 0.0102861
 5576.29244 1.8152370 0.0101348
 5581.87363 1.8290036 0.0101635
 5587.45422 1.8569556 0.0101736
 5593.03541 1.8721138 0.0102517
 5598.62798 1.8816406 0.0104493
 5604.23373 1.8871170 0.0102455
 5609.83887 1.8961250 0.0102698
 5615.44462 1.8949255 0.0103018
 5621.06174 1.9019665 0.0103020
 5626.67947 1.9083283 0.0102794
 5632.30977 1.9075254 0.0103348
 5637.93947 1.9234113 0.0103385
 5643.58175 1.9305227 0.0103493
 5649.22343 1.9339030 0.0104014
 5654.87828 1.9252657 0.0103776
 5660.53254 1.9207391 0.0103696
 5666.18680 1.9099455 0.0104287
 5671.85363 1.9029793 0.0104443
 5677.53244 1.8995348 0.0104362
 5683.21185 1.8890558 0.0102648
 5688.89066 1.8681920 0.0104552
 5694.58205 1.8435929 0.0104489
 5700.27284 1.8134007 0.0104594
 5705.97621 1.7765480 0.0104916
 5711.68017 1.7499877 0.0102902
 5717.39552 1.7119925 0.0102859
 5723.11146 1.6783470 0.0104923
 5728.83938 1.6517005 0.0105226
 5734.55533 1.6220969 0.0105271
 5740.29523 1.5847923 0.0106491
 5746.03573 1.5590271 0.0105576
 5751.78820 1.5376374 0.0106592
 5757.54068 1.5192949 0.0107893
 5763.29316 1.5055217 0.0108504
 5769.05821 1.4871612 0.0110399
 5774.82327 1.4650077 0.0110998
 5780.60030 1.4435738 0.0109752
 5786.37733 1.4174058 0.0110674
 5792.16634 1.3995969 0.0111308
 5797.96793 1.3876175 0.0112306
 5803.75754 1.3746901 0.0113428
 5809.55912 1.3687702 0.0113734
 5815.37329 1.3704265 0.0113165
 5821.18685 1.3687763 0.0113600
 5827.01299 1.3579680 0.0110113
 5832.83914 1.3517902 0.0108597
 5838.67786 1.3572688 0.0107612
 5844.50400 1.3686836 0.0107123
 5850.35470 1.3778198 0.0106791
 5856.20479 1.3793802 0.0106667
 5862.06807 1.3791490 0.0106362
 5867.93074 1.3902578 0.0105863
 5873.79402 1.3908772 0.0105374
 5879.66927 1.4025578 0.0102857
 5885.54452 1.4108834 0.0102376
 5891.43175 1.4230140 0.0102564
 5897.31898 1.4266084 0.0102166
 5903.21879 1.4282869 0.0103883
 5909.13117 1.4222963 0.0105283
 5915.04296 1.4103279 0.0111115
 5920.95475 1.4074953 0.0121880
 5926.86713 1.4029917 0.0136257
 5932.80347 1.3958623 0.0150718
 5938.72783 1.3938291 0.0159368
 5944.66417 1.3971453 0.0159339
 5950.61309 1.3866678 0.0162131
 5956.56201 1.3603296 0.0159394
 5962.52291 1.3555589 0.0152592
 5968.48380 1.3608495 0.0140863
 5974.45727 1.3703601 0.0127682
 5980.43075 1.3937035 0.0116210
 5986.40422 1.4148029 0.0108827
 5992.40165 1.4478531 0.0106413
 5998.38770 1.4801586 0.0103678
 6004.38513 1.5069638 0.0101102
 6010.39573 1.5191354 0.0099299
 6016.40574 1.5334932 0.0097728
 6022.41574 1.5273188 0.0096279
 6028.45030 1.5301434 0.0094566
 6034.47289 1.5156643 0.0093331
 6040.50745 1.4995339 0.0091876
 6046.55459 1.4888158 0.0090408
 6052.58915 1.4625038 0.0090017
 6058.64826 1.4311330 0.0088972
 6064.70738 1.4196708 0.0087660
 6070.76649 1.4006954 0.0091319
 6076.83819 1.3886133 0.0095739
 6082.92186 1.3919140 0.0097971
 6089.00553 1.3772717 0.0095882
 6095.08920 1.3709228 0.0091232
 6101.18545 1.3609736 0.0087959
 6107.29367 1.3453038 0.0090253
 6113.40190 1.3389981 0.0107693
 6119.51013 1.3446698 0.0126408
 6125.63033 1.3285332 0.0115730
 6131.75113 1.3335024 0.0134080
 6137.88392 1.3259654 0.0155758
 6144.02868 1.3214732 0.0159800
 6150.17403 1.2900103 0.0160186
 6156.31879 1.2696902 0.0131739
 6162.47613 1.2632331 0.0159721
 6168.63347 1.2541758 0.0119654
 6174.80278 1.2463224 0.0105247
 6180.98467 1.2466953 0.0094091
 6187.16656 1.2611336 0.0087371
 6193.36103 1.2633173 0.0081614
 6199.54292 1.2665929 0.0076797
 6205.74937 1.2669019 0.0075414
 6211.95522 1.2693313 0.0074646
 6218.16166 1.2761189 0.0073356
 6224.38069 1.2788342 0.0073275
 6230.61109 1.2772769 0.0073168
 6236.84209 1.2828680 0.0073097
 6243.07309 1.2867486 0.0072935
 6249.31607 1.2845485 0.0072786
 6255.57163 1.2837404 0.0072708
 6261.82719 1.2869568 0.0071444
 6268.08274 1.2903439 0.0072614
 6274.35028 1.2924736 0.0072735
 6280.63039 1.2891060 0.0072939
 6286.91050 1.2916626 0.0073184
 6293.20259 1.2893537 0.0073476
 6299.49468 1.2867273 0.0073524
 6305.78677 1.2909194 0.0072060
 6312.10401 1.2923464 0.0071823
 6318.40808 1.2998781 0.0071360
 6324.72533 1.3057005 0.0072418
 6331.05395 1.3119925 0.0072546
 6337.38317 1.3211305 0.0072753
 6343.72437 1.3286887 0.0072893
 6350.06557 1.3322443 0.0071657
 6356.41935 1.3444415 0.0071426
 6362.77252 1.3622112 0.0071138
 6369.13888 1.3776827 0.0072309
 6375.50463 1.3996150 0.0072325
 6381.88237 1.4139773 0.0071473
 6388.26070 1.4297179 0.0071192
 6394.65101 1.4427513 0.0070917
 6401.05390 1.4536717 0.0070670
 6407.44421 1.4585589 0.0070553
 6413.85907 1.4634984 0.0070673
 6420.27394 1.4782484 0.0070504
 6426.68880 1.4887855 0.0070372
 6433.11565 1.4975626 0.0070310
 6439.55507 1.5117639 0.0070311
 6445.99449 1.5249958 0.0070560
 6452.43391 1.5376590 0.0070437
 6458.88590 1.5467641 0.0070360
 6465.34988 1.5545881 0.0070151
 6471.81385 1.5514272 0.0070051
 6478.28981 1.5527725 0.0068901
 6484.76636 1.5474465 0.0069902
 6491.25429 1.5364310 0.0070627
 6497.74282 1.5228251 0.0071138
 6504.24393 1.5115764 0.0070522
 6510.74444 1.4926544 0.0075199
 6517.25752 1.4787675 0.0080243
 6523.77061 1.4716990 0.0084499
 6530.29567 1.4625202 0.0083799
 6536.83331 1.4540581 0.0080125
 6543.37095 1.4528692 0.0075279
 6549.90860 1.4536206 0.0071170
 6556.45821 1.4630855 0.0069422
 6563.02041 1.4521012 0.0069014
 6569.58261 1.4441245 0.0068439
 6576.15678 1.4398221 0.0066715
 6582.71897 1.4368664 0.0066177
 6589.30573 1.4407574 0.0065777
 6595.90445 1.4379205 0.0066220
 6602.49121 1.4455487 0.0064840
 6609.10191 1.4537271 0.0064571
 6615.70124 1.4654063 0.0064599
 6622.32452 1.4657243 0.0064239
 6628.94781 1.4767817 0.0064196
 6635.57109 1.4818290 0.0064143
 6642.20695 1.4827192 0.0064200
 6648.85479 1.4745339 0.0064160
 6655.50263 1.4676504 0.0063985
 6662.16305 1.4645413 0.0062716
 6668.82286 1.4585861 0.0063351
 6675.49586 1.4542547 0.0063153
 6682.16825 1.4545934 0.0062005
 6688.85262 1.4487336 0.0062607
 6695.53759 1.4302579 0.0062155
 6702.23454 1.4091493 0.0060681
 6708.93149 1.3879280 0.0061108
 6715.64102 1.3719566 0.0060699
 6722.36252 1.3564295 0.0059394
 6729.08403 1.3501267 0.0059989
 6735.81751 1.3466765 0.0059859
 6742.55159 1.3440226 0.0058888
 6749.29765 1.3410239 0.0058753
 6756.04371 1.3295850 0.0059601
 6762.80175 1.3210438 0.0058549
 6769.56038 1.3134302 0.0059096
 6776.33100 1.3002264 0.0057771
 6783.10161 1.2848836 0.0057297
 6789.88421 1.2749674 0.0057715
 6796.67938 1.2613626 0.0056450
 6803.47454 1.2451718 0.0056127
 6810.28169 1.2321436 0.0055738
 6817.08944 1.2212646 0.0055355
 6823.90916 1.2114403 0.0055099
 6830.74087 1.2066534 0.0054848
 6837.56059 1.2017075 0.0054564
 6844.40487 1.1950043 0.0054263
 6851.24855 1.1887094 0.0053924
 6858.10541 1.1795554 0.0053643
 6864.96167 1.1664999 0.0053391
 6871.81792 1.1554509 0.0053127
 6878.69934 1.1415451 0.0052135
 6885.58015 1.1266015 0.0052547
 6892.46096 1.1136705 0.0051819
 6899.35435 1.1010003 0.0052897
 6906.24774 1.0927920 0.0052841
 6913.15311 1.0786307 0.0052730
 6920.07105 1.0669284 0.0052672
 6926.98840 1.0575924 0.0051756
 6933.91892 1.0498949 0.0052203
 6940.86082 1.0401567 0.0054117
 6947.79134 1.0301665 0.0057421
 6954.74582 1.0199536 0.0054969
 6961.70030 1.0063090 0.0060728
 6968.65478 0.9927817 0.0066239
 6975.63381 0.9708284 0.0067746
 6982.60087 0.9524413 0.0063150
 6989.59188 0.9446282 0.0057165
 6996.58349 0.9460751 0.0051832
 7003.57510 0.9395245 0.0050097
 7010.57869 0.9356604 0.0050981
 7017.59425 0.9301040 0.0049126
 7024.61042 0.9190080 0.0047540
 7031.63856 0.9099659 0.0048357
