# SOURCE  = 'Quimby et al. 2018' /                                                
# OBJECT  = 'PTF12dam'           /                                                
# Z       =             0.107500 / wavelengths in OBSERVER FRAME                 
# NORM    =          3.81220E-18 / fluxes divided by norm                         
# CLIPPED =                    1 / galaxy emission lines removed                  
# SMOOTHED=                    1 / spectrum has been smoothed                     
# COLUMN01= 'Wavelength (Angstrom)' /                                             
# COLUMN02= 'Flux Density (erg/s/cm2/A)' /                                        
# COLUMN03= 'Flux Density Uncertainty (erg/s/cm2/A)' /                            
# END                                                                             
# 
# 
# 
# 
# 
# 
# 
# 
# 
# 
# Converted to Observer Frame using z=0.1075
 3461.63610 3.0128236 0.2198599
 3465.09507 2.9988239 0.2151402
 3468.55374 2.9714968 0.2067676
 3472.02499 3.0205443 0.2027422
 3475.49624 3.1036706 0.1944779
 3478.97947 2.9874375 0.1865827
 3482.45072 2.9785557 0.1827053
 3485.93425 2.9954934 0.1749578
 3489.42976 2.9695885 0.1715640
 3492.91328 2.9140024 0.1653359
 3496.40909 2.9200151 0.1626278
 3499.90459 2.9012163 0.1561357
 3503.40040 2.8822258 0.1526050
 3506.90818 2.8794627 0.1455182
 3510.41627 2.9184704 0.1418223
 3513.92435 2.9040227 0.1364501
 3517.44441 2.9385269 0.1314851
 3520.95249 2.9444211 0.1291585
 3524.47255 2.9410074 0.1252730
 3528.00519 2.9267809 0.1235632
 3531.52525 2.9573805 0.1205393
 3535.05789 2.9504387 0.1190369
 3538.60250 2.9546449 0.1164870
 3542.13514 2.9828300 0.1156038
 3545.67976 3.0048015 0.1132637
 3549.22437 3.0292213 0.1114031
 3552.76929 3.0439610 0.1106626
 3556.32618 3.0718064 0.1077452
 3559.88337 3.0373895 0.1068796
 3563.44027 2.9980977 0.1042834
 3567.00944 3.0167081 0.1028083
 3570.57891 3.0478439 0.0996860
 3574.14808 3.0796118 0.0985305
 3577.71725 3.1322348 0.0958070
 3581.29900 3.1290219 0.0938283
 3584.88045 3.1213651 0.0931229
 3588.46190 3.1171308 0.0911252
 3592.05592 3.1408949 0.0905002
 3595.64965 3.1301610 0.0885906
 3599.24337 3.0976434 0.0874946
 3602.83740 3.1376271 0.0854592
 3606.44340 3.1580532 0.0838243
 3610.04941 3.1304193 0.0836958
 3613.65541 3.1333866 0.0822153
 3617.27369 3.1134133 0.0820944
 3620.89227 3.1033721 0.0809243
 3624.51055 3.0907755 0.0803014
 3628.14111 3.0646930 0.0790347
 3631.75939 3.0238962 0.0778390
 3635.38995 3.0240624 0.0772690
 3639.03309 2.9913127 0.0761759
 3642.67592 2.9416547 0.0761476
 3646.31876 2.9253924 0.0745479
 3649.96159 2.8857160 0.0744022
 3653.61671 2.8518801 0.0731872
 3657.25954 2.8508360 0.0720051
 3660.92693 2.8137732 0.0713411
 3664.58205 2.7828887 0.0699407
 3668.24944 2.7611210 0.0694462
 3671.91683 2.7647402 0.0675113
 3675.58422 2.7445457 0.0662375
 3679.26389 2.7404132 0.0657523
 3682.94356 2.7553482 0.0633874
 3686.62323 2.7654271 0.0625203
 3690.31517 2.7512112 0.0602868
 3694.00712 2.7408566 0.0593769
 3697.69907 2.7635219 0.0576678
 3701.39101 2.7690723 0.0564684
 3705.09524 2.7739618 0.0563083
 3708.79946 2.7673776 0.0552686
 3712.51596 2.7666519 0.0553143
 3716.22019 2.7421832 0.0549570
 3719.93669 2.7483876 0.0548165
 3723.66547 2.7385530 0.0547460
 3727.38167 2.7377076 0.0547201
 3731.11045 2.7323248 0.0551225
 3734.83923 2.7321637 0.0544609
 3738.58028 2.7503705 0.0540888
 3742.32134 2.7598276 0.0541169
 3746.06210 2.7857716 0.0530077
 3749.80315 2.7845733 0.0524193
 3753.55649 2.7940311 0.0513294
 3757.30982 2.8246140 0.0502322
 3761.06315 2.8346996 0.0498599
 3764.82847 2.8392034 0.0487075
 3768.59408 2.8335795 0.0484946
 3772.35969 2.8600247 0.0479039
 3776.13728 2.8832164 0.0470891
 3779.91517 2.8862894 0.0472219
 3783.69306 2.9004633 0.0470628
 3787.47065 2.9281795 0.0467740
 3791.26081 2.9160810 0.0465424
 3795.05098 2.9146271 0.0462092
 3798.85313 2.9421408 0.0464597
 3802.64329 2.9483213 0.0464177
 3806.44574 2.9365680 0.0458426
 3810.26016 2.9179475 0.0460820
 3814.07488 2.9177694 0.0454580
 3817.87702 2.9009068 0.0454007
 3821.70402 2.8805072 0.0444528
 3825.51845 2.8832624 0.0439166
 3829.34545 2.8589201 0.0440888
 3833.17214 2.8525915 0.0439672
 3837.01142 2.8290961 0.0434712
 3840.85040 2.8273287 0.0439782
 3844.68968 2.8274558 0.0437835
 3848.52865 2.8083274 0.0439623
 3852.38021 2.8081994 0.0431574
 3856.23146 2.7943759 0.0427743
 3860.09529 2.7769673 0.0429243
 3863.94655 2.7580597 0.0424031
 3867.81008 2.7564955 0.0419175
 3871.68619 2.7474453 0.0417662
 3875.54972 2.7461579 0.0414140
 3879.42583 2.7271841 0.0407013
 3883.31392 2.7176621 0.0403305
 3887.18973 2.6989722 0.0393328
 3891.07812 2.6808469 0.0390199
 3894.97848 2.6910727 0.0384172
 3898.86657 2.6857734 0.0382606
 3902.76693 2.6768236 0.0387701
 3906.66760 2.6819537 0.0386451
 3910.58024 2.6800675 0.0390195
 3914.49288 2.6641538 0.0396449
 3918.40553 2.6455853 0.0408430
 3922.31847 2.6243062 0.0416895
 3926.24339 2.6212387 0.0433680
 3930.16831 2.5831163 0.0411028
 3934.10551 2.5686111 0.0413570
 3938.03043 2.5721605 0.0422352
 3941.96792 2.5771027 0.0424032
 3945.91740 2.5766940 0.0432603
 3949.85460 2.5866590 0.0433907
 3953.81635 2.5659523 0.0432966
 3957.76582 2.5649266 0.0438226
 3961.72758 2.5607643 0.0431919
 3965.68933 2.5715623 0.0422490
 3969.65108 2.5774343 0.0410743
 3973.62511 2.5748770 0.0398036
 3977.59914 2.5868113 0.0386234
 3981.57317 2.6009767 0.0375953
 3985.55948 2.6184225 0.0366104
 3989.54579 2.6031029 0.0358258
 3993.53210 2.6107142 0.0354178
 3997.51840 2.6242476 0.0352115
 4001.51699 2.6052482 0.0349482
 4005.52785 2.5812836 0.0358698
 4009.52644 2.5549304 0.0395335
 4013.53730 2.5686617 0.0382735
 4017.54816 2.5693803 0.0376234
 4021.57130 2.5663311 0.0365398
 4025.59445 2.5932844 0.0365838
 4029.61759 2.5799947 0.0369634
 4033.65300 2.5534041 0.0365508
 4037.67584 2.5323985 0.0360190
 4041.72354 2.5313175 0.0360442
 4045.75896 2.5415952 0.0352265
 4049.80665 2.5446718 0.0347524
 4053.85435 2.5510719 0.0346572
 4057.91402 2.5624454 0.0340672
 4061.97400 2.5904441 0.0334568
 4066.03397 2.6076887 0.0334834
 4070.09394 2.6056917 0.0326031
 4074.16589 2.5968640 0.0321922
 4078.23814 2.5737488 0.0319181
 4082.32267 2.5791647 0.0321758
 4086.40720 2.5747962 0.0322564
 4090.49143 2.5689201 0.0324819
 4094.57596 2.5702515 0.0326105
 4098.67276 2.5887356 0.0328078
 4102.76927 2.5996759 0.0328873
 4106.87835 2.6071026 0.0333276
 4110.98714 2.5953236 0.0332582
 4115.09622 2.5836730 0.0332523
 4119.20530 2.6051219 0.0332294
 4123.32636 2.5957732 0.0332814
 4127.44772 2.5953825 0.0333808
 4131.58106 2.6022470 0.0335299
 4135.71470 2.5984423 0.0341903
 4139.84804 2.6218338 0.0343101
 4143.99396 2.6392045 0.0336267
 4148.13957 2.6280963 0.0332024
 4152.28549 2.6220822 0.0326358
 4156.43110 2.6203246 0.0326162
 4160.58930 2.6180420 0.0316057
 4164.74719 2.6194050 0.0309688
 4168.91736 2.6172209 0.0304878
 4173.08783 2.6301792 0.0301770
 4177.25801 2.6499443 0.0299938
 4181.44075 2.6651649 0.0298307
 4185.61093 2.6734326 0.0296655
 4189.80565 2.6803229 0.0293994
 4193.98840 2.6729887 0.0291961
 4198.18313 2.6539719 0.0290889
 4202.39013 2.6372881 0.0290137
 4206.58516 2.6154468 0.0288783
 4210.79216 2.6104050 0.0287833
 4214.99917 2.6063893 0.0288947
 4219.21845 2.6082132 0.0289497
 4223.43803 2.6072881 0.0291735
 4227.66959 2.5843344 0.0294112
 4231.88887 2.5800540 0.0296593
 4236.12043 2.5679071 0.0293606
 4240.36426 2.5566521 0.0295204
 4244.59612 2.5426786 0.0299084
 4248.83996 2.5264373 0.0299417
 4253.09607 2.5337837 0.0299063
 4257.35219 2.5256698 0.0287974
 4261.60830 2.5040021 0.0282252
 4265.86442 2.4982851 0.0283935
 4270.13281 2.4840112 0.0282239
 4274.40120 2.4613719 0.0281214
 4278.68217 2.4361184 0.0280949
 4282.96284 2.4369049 0.0276492
 4287.24351 2.4307253 0.0274540
 4291.52418 2.4268944 0.0275318
 4295.81712 2.4406221 0.0270875
 4300.11007 2.4559367 0.0266447
 4304.41530 2.4656861 0.0260153
 4308.72052 2.4608495 0.0257266
 4313.02574 2.4684718 0.0255072
 4317.34295 2.4674766 0.0254140
 4321.66045 2.4663031 0.0257818
 4325.97795 2.4454787 0.0256775
 4330.30773 2.4393046 0.0260562
 4334.63751 2.4424882 0.0257393
 4338.97957 2.4355738 0.0252257
 4343.30935 2.4326122 0.0250026
 4347.65140 2.4225671 0.0253189
 4352.00544 2.4020343 0.0250761
 4356.35977 2.3818016 0.0252367
 4360.71411 2.3730593 0.0254813
 4365.06844 2.3825381 0.0257083
 4369.43505 2.3640323 0.0257412
 4373.80137 2.3657997 0.0255132
 4378.18026 2.3846018 0.0248317
 4382.55915 2.3985202 0.0249048
 4386.95001 2.3977535 0.0244642
 4391.32890 2.3945663 0.0240543
 4395.72007 2.3988934 0.0237532
 4400.12322 2.3889799 0.0236517
 4404.51438 2.3851202 0.0239263
 4408.91783 2.3771172 0.0239426
 4413.33325 2.3713598 0.0242557
 4417.74897 2.3798666 0.0244105
 4422.16470 2.4012375 0.0246047
 4426.59240 2.3976264 0.0247757
 4431.00812 2.3973157 0.0248897
 4435.44810 2.3977413 0.0246014
 4439.87610 2.4008775 0.0246676
 4444.31607 2.4058261 0.0247701
 4448.76863 2.4025762 0.0248260
 4453.20861 2.3924396 0.0251748
 4457.66116 2.3934274 0.0252215
 4462.12569 2.3870754 0.0252309
 4466.59053 2.3694124 0.0251934
 4471.05506 2.3668911 0.0248756
 4475.53217 2.3394203 0.0249333
 4479.99670 2.3129289 0.0250506
 4484.48579 2.2793970 0.0252115
 4488.96290 2.2484744 0.0253861
 4493.45199 2.2276559 0.0252803
 4497.95335 2.1921170 0.0255337
 4502.44274 2.1684041 0.0251765
 4506.95639 2.1694057 0.0252745
 4511.45775 2.1301877 0.0254000
 4515.97169 2.1066976 0.0255351
 4520.48534 2.0873823 0.0263564
 4525.01126 2.0757835 0.0272949
 4529.52490 2.0593655 0.0283924
 4534.06340 2.0517983 0.0298601
 4538.58932 2.0582502 0.0320711
 4543.13979 2.0761962 0.0267336
 4547.67799 2.0881069 0.0274348
 4552.22847 2.1068003 0.0283180
 4556.77924 2.1384206 0.0296588
 4561.32972 2.1219385 0.0311818
 4565.89247 2.1516161 0.0326849
 4570.46750 2.1646547 0.0339338
 4575.03026 2.1672614 0.0348725
 4579.60529 2.1485908 0.0332899
 4584.19260 2.1473978 0.0315753
 4588.76763 2.1640110 0.0286689
 4593.36721 2.1462519 0.0272397
 4597.95452 2.1064031 0.0260953
 4602.55411 2.0993538 0.0254753
 4607.15369 2.0993872 0.0304156
 4611.76556 2.0708134 0.0279261
 4616.37742 2.0533452 0.0266801
 4620.98928 2.0692787 0.0252409
 4625.61343 2.0586326 0.0241147
 4630.23757 2.0386205 0.0231998
 4634.87398 2.0425358 0.0228475
 4639.49813 2.0439672 0.0223363
 4644.14682 2.0446053 0.0220677
 4648.78324 2.0553062 0.0218347
 4653.43164 2.0981152 0.0216240
 4658.09261 2.0882256 0.0214819
 4662.75358 2.0916617 0.0212996
 4667.41456 2.1071150 0.0211150
 4672.07553 2.1053073 0.0209770
 4676.74848 2.1022849 0.0208974
 4681.43401 2.0648799 0.0207406
 4686.10726 2.0529385 0.0206604
 4690.79279 2.0556877 0.0209183
 4695.49030 2.0507402 0.0215156
 4700.18811 2.0247197 0.0223346
 4704.88591 2.0598013 0.0212493
 4709.58342 2.0243931 0.0212281
 4714.29350 1.9819847 0.0217763
 4719.01586 1.9512491 0.0224955
 4723.73793 1.9265031 0.0232744
 4728.46029 1.9164993 0.0239449
 4733.18235 1.9258198 0.0244750
 4737.91699 1.9379213 0.0247097
 4742.65133 1.9253125 0.0244172
 4747.39824 1.8857661 0.0239770
 4752.14486 1.8744447 0.0233418
 4756.90405 1.8877935 0.0226357
 4761.65067 1.8793826 0.0220004
 4766.42214 1.8928885 0.0214462
 4771.18104 1.9039062 0.0209257
 4775.95251 1.9358362 0.0207084
 4780.73596 1.9711446 0.0212654
 4785.51971 2.0196829 0.0220198
 4790.30316 2.0310690 0.0211657
 4795.08661 2.0408258 0.0205320
 4799.88263 2.0247889 0.0205629
 4804.69064 2.0406127 0.0205889
 4809.48636 2.0605807 0.0206513
 4814.30695 2.0557573 0.0207903
 4819.11495 2.0676775 0.0209098
 4823.93523 2.0663004 0.0210025
 4828.75582 2.0811481 0.0210439
 4833.58837 2.0591249 0.0210650
 4838.42093 2.0367923 0.0210798
 4843.26577 2.0297465 0.0210824
 4848.09863 2.0307102 0.0210766
 4852.95575 2.0214722 0.0211205
 4857.80058 2.0309970 0.0212247
 4862.65770 2.0352702 0.0213645
 4867.52709 2.0416481 0.0215853
 4872.39648 2.0339241 0.0218256
 4877.26588 2.0287633 0.0219395
 4882.14784 2.0297284 0.0220514
 4887.02951 2.0393040 0.0221197
 4891.91118 2.0440705 0.0221618
 4896.80513 2.0574565 0.0221323
 4901.69908 2.0605459 0.0220381
 4906.60530 2.0682797 0.0219349
 4911.51153 2.0839250 0.0218339
 4916.41775 2.0959952 0.0217007
 4921.33626 2.1153874 0.0215733
 4926.25476 2.0975873 0.0214780
 4931.18554 2.0814404 0.0213742
 4936.11632 2.0784302 0.0212622
 4941.05908 2.0700583 0.0217714
 4945.98986 2.0657074 0.0224289
 4950.94519 2.0664537 0.0208607
 4955.90053 2.0534804 0.0207718
 4960.85586 2.0468097 0.0210982
 4965.81120 2.0398076 0.0216135
 4970.77851 2.0371130 0.0222258
 4975.74612 2.0478611 0.0228485
 4980.72601 2.0414171 0.0234359
 4985.70590 2.0305018 0.0246690
 4990.68580 2.0367329 0.0262719
 4995.67766 2.0321393 0.0257285
 5000.68211 2.0266495 0.0240957
 5005.67428 2.0285518 0.0240878
 5010.69070 2.0226212 0.0239998
 5015.69515 2.0123620 0.0240766
 5020.71187 1.9961478 0.0241023
 5025.72859 1.9629395 0.0241416
 5030.75699 1.9415462 0.0249606
 5035.78599 1.9057564 0.0269524
 5040.82757 1.8947024 0.0249429
 5045.86855 1.8841126 0.0234571
 5050.90953 1.8826579 0.0227849
 5055.96308 1.8925188 0.0220907
 5061.01664 1.8967587 0.0214348
 5066.08217 1.9087012 0.0207305
 5071.14771 1.9100595 0.0204470
 5076.21324 1.9120604 0.0205876
 5081.29135 1.9290920 0.0218236
 5086.38144 1.9304702 0.0210566
 5091.45955 1.9396857 0.0204639
 5096.56221 1.9304450 0.0201841
 5101.65230 1.9210957 0.0201650
 5106.75497 1.9109297 0.0199693
 5111.85704 1.9068515 0.0202428
 5116.97168 1.8873134 0.0202337
 5122.08692 1.8692844 0.0202264
 5127.21354 1.8707463 0.0202261
 5132.34076 1.8653469 0.0202276
 5137.47996 1.8661996 0.0202478
 5142.60718 1.8620819 0.0202772
 5147.75836 1.8790313 0.0200971
 5152.89756 1.8794129 0.0201727
 5158.04934 1.8733616 0.0202512
 5163.21309 1.8656662 0.0202703
 5168.37684 1.8777907 0.0205043
 5173.54060 1.8817658 0.0205211
 5178.71693 1.8868968 0.0205693
 5183.89266 1.8810089 0.0204044
 5189.08097 1.8847145 0.0204467
 5194.26928 1.8580952 0.0204766
 5199.47016 1.8484254 0.0204986
 5204.67045 1.8496261 0.0205468
 5209.87134 1.8371552 0.0205692
 5215.08420 1.8287930 0.0207584
 5220.29707 1.8336422 0.0204359
 5225.52191 1.8362826 0.0203276
 5230.74735 1.8332365 0.0201971
 5235.97219 1.8336006 0.0200649
 5241.20961 1.8366882 0.0199286
 5246.44703 1.8475602 0.0198094
 5251.69702 1.8417993 0.0197356
 5256.94642 1.8362908 0.0197378
 5262.20840 1.8382583 0.0197132
 5267.47037 1.8636194 0.0199017
 5272.73234 1.8575300 0.0204411
 5278.00630 1.8611630 0.0211713
 5283.29283 1.8548105 0.0221810
 5288.56738 1.8587337 0.0203430
 5293.86589 1.8509845 0.0205038
 5299.15241 1.8583297 0.0211581
 5304.45092 1.8561209 0.0218640
 5309.76201 1.8496476 0.0228631
 5315.07309 1.8493961 0.0238909
 5320.38417 1.8534826 0.0248386
 5325.70724 1.8628708 0.0259153
 5331.03030 1.8607783 0.0257519
 5336.36594 1.8779386 0.0251460
 5341.70158 1.8750089 0.0242759
 5347.03722 1.8665349 0.0232733
 5352.38484 1.8673105 0.0222879
 5357.74503 1.8605585 0.0215589
 5363.09265 1.8490103 0.0209987
 5368.46482 1.8601736 0.0213162
 5373.82502 1.8510557 0.0223879
 5379.19719 1.8567078 0.0214562
 5384.58194 1.8474911 0.0205814
 5389.96669 1.8358120 0.0200247
 5395.36341 1.8263537 0.0201427
 5400.74816 1.8119644 0.0203649
 5406.15687 1.7869198 0.0204860
 5411.56617 1.7717680 0.0211350
 5416.97548 1.7599694 0.0213263
 5422.38419 1.7587607 0.0213418
 5427.81805 1.7655054 0.0213339
 5433.23933 1.7492783 0.0219461
 5438.67319 1.7403754 0.0230450
 5444.11903 1.7053554 0.0217344
 5449.55289 1.6901503 0.0215335
 5455.01070 1.6872721 0.0219148
 5460.45654 1.6769546 0.0223801
 5465.92693 1.6716973 0.0231128
 5471.38535 1.6872092 0.0234865
 5476.86832 1.6959850 0.0239673
 5482.33871 1.7107302 0.0242259
 5487.82108 1.7051771 0.0235056
 5493.31603 1.7159787 0.0228434
 5498.79900 1.7325964 0.0221560
 5504.30593 1.7447523 0.0214838
 5509.80087 1.7452019 0.0207047
 5515.32038 1.7542282 0.0205119
 5520.82790 1.7661108 0.0200966
 5526.34740 1.7703122 0.0195846
 5531.87889 1.7806597 0.0195717
 5537.41097 1.7621911 0.0206229
 5542.95502 1.7611620 0.0199884
 5548.48651 1.7654606 0.0192742
 5554.04314 1.7736125 0.0192377
 5559.59918 1.7712607 0.0193950
 5565.15581 1.7848076 0.0191179
 5570.72383 1.7924355 0.0190647
 5576.29244 1.7981268 0.0190392
 5581.87363 1.8142675 0.0190474
 5587.45422 1.8135455 0.0190167
 5593.03541 1.8082356 0.0189915
 5598.62798 1.8147711 0.0192044
 5604.23373 1.8203944 0.0189968
 5609.83887 1.8143694 0.0190034
 5615.44462 1.8001288 0.0190107
 5621.06174 1.7904996 0.0190236
 5626.67947 1.7788405 0.0190217
 5632.30977 1.7658525 0.0190262
 5637.93947 1.7485822 0.0190523
 5643.58175 1.7295806 0.0190445
 5649.22343 1.7173398 0.0190403
 5654.87828 1.7003969 0.0188714
 5660.53254 1.6903783 0.0190982
 5666.18680 1.7009916 0.0189258
 5671.85363 1.7207882 0.0189665
 5677.53244 1.7311772 0.0192625
 5683.21185 1.7433199 0.0191410
 5688.89066 1.7459438 0.0192219
 5694.58205 1.7254487 0.0194935
 5700.27284 1.7404852 0.0193410
 5705.97621 1.7496777 0.0193395
 5711.68017 1.7548288 0.0192793
 5717.39552 1.7454007 0.0192404
 5723.11146 1.7305698 0.0192486
 5728.83938 1.7304918 0.0190822
 5734.55533 1.7272270 0.0193243
 5740.29523 1.7303315 0.0193940
 5746.03573 1.7121950 0.0193048
 5751.78820 1.6889187 0.0195958
 5757.54068 1.6665238 0.0196669
 5763.29316 1.6479568 0.0195449
 5769.05821 1.6508924 0.0197972
 5774.82327 1.6573623 0.0195386
 5780.60030 1.6489282 0.0197224
 5786.37733 1.6379361 0.0197217
 5792.16634 1.6213070 0.0194544
 5797.96793 1.5975417 0.0196353
 5803.75754 1.5920832 0.0194220
 5809.55912 1.5978357 0.0194297
 5815.37329 1.5873760 0.0194347
 5821.18685 1.5750237 0.0193625
 5827.01299 1.5548899 0.0193442
 5832.83914 1.5384527 0.0193754
 5838.67786 1.5404364 0.0193937
 5844.50400 1.5363421 0.0194656
 5850.35470 1.5265886 0.0195113
 5856.20479 1.5142775 0.0193965
 5862.06807 1.4992843 0.0196814
 5867.93074 1.4968278 0.0197649
 5873.79402 1.4985237 0.0196888
 5879.66927 1.5052493 0.0199841
 5885.54452 1.4878540 0.0198339
 5891.43175 1.4738996 0.0201312
 5897.31898 1.4705362 0.0206301
 5903.21879 1.4692062 0.0212522
 5909.13117 1.4784094 0.0224056
 5915.04296 1.4904298 0.0210401
 5920.95475 1.4887137 0.0203448
 5926.86713 1.4924777 0.0208920
 5932.80347 1.4952596 0.0218674
 5938.72783 1.4930437 0.0225839
 5944.66417 1.4985136 0.0235018
 5950.61309 1.4980673 0.0243905
 5956.56201 1.4980032 0.0250386
 5962.52291 1.5039032 0.0252075
 5968.48380 1.5148095 0.0245628
 5974.45727 1.4825917 0.0238629
 5980.43075 1.4638525 0.0229283
 5986.40422 1.4748524 0.0218602
 5992.40165 1.4749392 0.0213917
 5998.38770 1.4884108 0.0205731
 6004.38513 1.4817406 0.0210734
 6010.39573 1.4891347 0.0233101
 6016.40574 1.5133516 0.0225870
 6022.41574 1.5218712 0.0222806
 6028.45030 1.5315528 0.0224117
 6034.47289 1.5418807 0.0207385
 6040.50745 1.5594724 0.0209303
 6046.55459 1.5815736 0.0214024
 6052.58915 1.6138768 0.0218124
 6058.64826 1.6265779 0.0227462
 6064.70738 1.6334926 0.0231405
 6070.76649 1.6563643 0.0245588
 6076.83819 1.6739360 0.0259583
 6082.92186 1.6802586 0.0284479
 6089.00553 1.6800677 0.0315040
 6095.08920 1.7058446 0.0291214
 6101.18545 1.7948599 0.0262756
 6107.29367 1.8215462 0.0256138
 6113.40190 1.8407909 0.0265625
 6119.51013 1.8390548 0.0279574
 6125.63033 1.8645817 0.0295032
 6131.75113 1.9221547 0.0343840
 6137.88392 1.8612202 0.0524169
 6144.02868 1.8326561 0.0477113
 6150.17403 1.7771450 0.0427341
 6156.31879 1.7131982 0.0434513
 6162.47613 1.6667613 0.0426900
 6168.63347 1.6506151 0.0394621
 6174.80278 1.6045780 0.0374583
 6180.98467 1.5519323 0.0347511
 6187.16656 1.5166725 0.0395630
 6193.36103 1.5087528 0.0349328
 6199.54292 1.4933157 0.0322186
 6205.74937 1.4736893 0.0300602
 6211.95522 1.4562699 0.0285713
 6218.16166 1.4408588 0.0273106
 6224.38069 1.4466716 0.0268835
 6230.61109 1.4654888 0.0278571
 6236.84209 1.4630702 0.0272798
 6243.07309 1.4580944 0.0266012
 6249.31607 1.4747436 0.0263722
 6255.57163 1.4791732 0.0262012
 6261.82719 1.4874452 0.0260810
 6268.08274 1.4939048 0.0259534
 6274.35028 1.5173385 0.0261873
