# SOURCE  = 'Quimby et al. 2018' /                                                
# OBJECT  = 'PTF11rks'           /                                                
# Z       =             0.192400 / wavelengths in OBSERVER FRAME                 
# NORM    =          4.67300E-17 / fluxes divided by norm                         
# CLIPPED =                    1 / galaxy emission lines removed                  
# SMOOTHED=                    1 / spectrum has been smoothed                     
# COLUMN01= 'Wavelength (Angstrom)' /                                             
# COLUMN02= 'Flux Density (erg/s/cm2/A)' /                                        
# COLUMN03= 'Flux Density Uncertainty (erg/s/cm2/A)' /                            
# END                                                                             
# 
# 
# 
# 
# 
# 
# 
# 
# 
# 
# Converted to Observer Frame using z=0.193
 3758.41815 2.4004850 0.0403693
 3762.17348 2.3931725 0.0388386
 3765.94341 2.3948781 0.0377085
 3769.71298 2.3965788 0.0366281
 3773.48255 2.3992095 0.0355749
 3777.25248 2.4149201 0.0345854
 3781.03629 2.4276216 0.0336286
 3784.80621 2.4373703 0.0327326
 3788.59002 2.4349425 0.0318979
 3792.38808 2.4289155 0.0311059
 3796.17224 2.4325888 0.0303550
 3799.97029 2.4351933 0.0296491
 3803.76834 2.4437344 0.0287585
 3807.58098 2.4463928 0.0281129
 3811.37903 2.4665277 0.0274938
 3815.19132 2.4909613 0.0269503
 3819.01786 2.5181034 0.0264119
 3822.83049 2.5271726 0.0259043
 3826.65703 2.5409315 0.0254411
 3830.48356 2.5496442 0.0249566
 3834.31009 2.5566752 0.0244894
 3838.15121 2.5702364 0.0238932
 3841.99198 2.5818510 0.0234615
 3845.83275 2.6060543 0.0230564
 3849.67352 2.6295838 0.0227219
 3853.52853 2.6416476 0.0223809
 3857.36964 2.6544046 0.0220720
 3861.23889 2.6756866 0.0218423
 3865.09390 2.6945505 0.0215895
 3868.96315 2.6903641 0.0213555
 3872.83240 2.6945491 0.0210277
 3876.70165 2.7154260 0.0207796
 3880.58513 2.7219760 0.0205312
 3884.45438 2.7442608 0.0203587
 3888.33787 2.7562661 0.0201528
 3892.23560 2.7563131 0.0200250
 3896.11943 2.7681806 0.0198278
 3900.01716 2.7774675 0.0194949
 3903.91489 2.7763863 0.0193408
 3907.82685 2.7757075 0.0191217
 3911.73882 2.7721422 0.0188951
 3915.65079 2.7672932 0.0187173
 3919.56275 2.7796314 0.0184771
 3923.47472 2.7819984 0.0182537
 3927.40092 2.7878971 0.0179459
 3931.32713 2.7963078 0.0177132
 3935.26723 2.8149590 0.0174948
 3939.19343 2.8208125 0.0172478
 3943.13388 2.8262327 0.0170259
 3947.08856 2.8344100 0.0168391
 3951.02901 2.8635776 0.0164541
 3954.98369 2.8901367 0.0162601
 3958.93837 2.9237812 0.0160331
 3962.89306 2.9604208 0.0157951
 3966.86198 2.9882791 0.0155884
 3970.83056 3.0236685 0.0153515
 3974.79948 3.0656540 0.0150472
 3978.76840 3.1004643 0.0148406
 3982.75157 3.1320853 0.0146570
 3986.73473 3.1633990 0.0145349
 3990.71789 3.1898992 0.0143769
 3994.71495 3.2279844 0.0142778
 3998.71235 3.2669394 0.0142350
 4002.70975 3.2972300 0.0144506
 4006.70715 3.3271778 0.0140257
 4010.71844 3.3373220 0.0137931
 4014.73008 3.3555522 0.0137068
 4018.74173 3.3758960 0.0135543
 4022.75302 3.3899405 0.0135892
 4026.77890 3.4093018 0.0135824
 4030.80478 3.4235640 0.0136197
 4034.84455 3.4406550 0.0136160
 4038.87043 3.4554029 0.0135294
 4042.91055 3.4626017 0.0135511
 4046.96456 3.4662766 0.0134937
 4051.00468 3.4705675 0.0134674
 4055.05904 3.4682813 0.0133770
 4059.11305 3.4741428 0.0132446
 4063.16741 3.4755044 0.0130959
 4067.23566 3.4757121 0.0129849
 4071.30426 3.4830103 0.0128004
 4075.37286 3.4763880 0.0126464
 4079.45535 3.4718473 0.0123626
 4083.52394 3.4717746 0.0121950
 4087.60643 3.4720237 0.0122650
 4091.70351 3.4623499 0.0121456
 4095.78600 3.4520755 0.0116981
 4099.88307 3.4408393 0.0115196
 4103.99404 3.4267266 0.0114606
 4108.09112 3.4081895 0.0115665
 4112.20209 3.3980205 0.0119173
 4116.31306 3.3681600 0.0117562
 4120.42437 3.3571420 0.0115105
 4124.54958 3.3398643 0.0115213
 4128.67513 3.3340116 0.0116370
 4132.80034 3.3364837 0.0116930
 4136.93979 3.3309269 0.0118998
 4141.07958 3.3313763 0.0120547
 4145.21903 3.3292668 0.0122547
 4149.35847 3.3180828 0.0123987
 4153.51251 3.3074455 0.0124759
 4157.66619 3.3017278 0.0125103
 4161.81988 3.2966726 0.0124170
 4165.98815 3.2920880 0.0120605
 4170.15608 3.2877858 0.0118342
 4174.32400 3.2847650 0.0116490
 4178.49227 3.2825816 0.0113710
 4182.67444 3.2918773 0.0110843
 4186.85660 3.2885914 0.0108611
 4191.03877 3.2929859 0.0107816
 4195.23517 3.2900059 0.0107006
 4199.43192 3.2889521 0.0106636
 4203.62832 3.2943294 0.0104752
 4207.83897 3.2973194 0.0103650
 4212.03537 3.2866988 0.0104625
 4216.24601 3.2835619 0.0108793
 4220.47124 3.2798069 0.0109483
 4224.69612 3.2718251 0.0104923
 4228.92101 3.2794044 0.0106004
 4233.14589 3.2772076 0.0107210
 4237.38501 3.2752171 0.0109099
 4241.60989 3.2743220 0.0109814
 4245.86325 3.2687526 0.0111279
 4250.10237 3.2529850 0.0115596
 4254.35573 3.2511015 0.0114051
 4258.60909 3.2416346 0.0112343
 4262.86245 3.2539370 0.0110567
 4267.13005 3.2565403 0.0110025
 4271.39765 3.2578037 0.0108617
 4275.66525 3.2602704 0.0107809
 4279.94709 3.2658474 0.0107529
 4284.22893 3.2690370 0.0105741
 4288.51077 3.2648039 0.0105440
 4292.79261 3.2712657 0.0105498
 4297.08869 3.2684257 0.0106145
 4301.38476 3.2740388 0.0109113
 4305.69508 3.2587292 0.0103232
 4309.99116 3.2321854 0.0101509
 4314.30148 3.2162006 0.0103023
 4318.62603 3.1936622 0.0103639
 4322.93600 3.1638210 0.0101092
 4327.26056 3.1376879 0.0100907
 4331.58512 3.1025457 0.0101540
 4335.92391 3.0685310 0.0101907
 4340.26271 3.0445557 0.0102403
 4344.60116 3.0025103 0.0104862
 4348.93995 2.9709537 0.0105460
 4353.29299 2.9344103 0.0102115
 4357.64602 2.9047861 0.0101646
 4361.99906 2.8650193 0.0100015
 4366.36598 2.8284633 0.0098316
 4370.73326 2.7923894 0.0097222
 4375.10053 2.7607975 0.0094483
 4379.48170 2.7211998 0.0093373
 4383.86321 2.6898243 0.0092398
 4388.24472 2.6581182 0.0092215
 4392.62589 2.6327941 0.0094726
 4397.02164 2.6147897 0.0091501
 4401.41740 2.5942788 0.0090634
 4405.82704 2.5739348 0.0090972
 4410.22279 2.5612168 0.0090413
 4414.63278 2.5499842 0.0090492
 4419.05667 2.5402715 0.0090161
 4423.48090 2.5314543 0.0089492
 4427.89054 2.5277407 0.0089268
 4432.32901 2.5263350 0.0087898
 4436.75290 2.5195687 0.0087817
 4441.19137 2.5089245 0.0087651
 4445.62949 2.5076458 0.0086190
 4450.08220 2.4980283 0.0086833
 4454.53456 2.4935708 0.0089214
 4458.98727 2.4851909 0.0085965
 4463.43963 2.4820368 0.0084496
 4467.90658 2.4694200 0.0084717
 4472.37318 2.4635139 0.0085529
 4476.85437 2.4592538 0.0085882
 4481.32097 2.4570725 0.0087591
 4485.80181 2.4453716 0.0087955
 4490.29724 2.4340267 0.0089786
 4494.77808 2.4260902 0.0089614
 4499.27351 2.4152987 0.0089360
 4503.78283 2.3992708 0.0089138
 4508.27791 2.3776698 0.0087034
 4512.78758 2.3617685 0.0085556
 4517.31113 2.3515608 0.0083804
 4521.82045 2.3408904 0.0084808
 4526.34401 2.3361874 0.0080917
 4530.86792 2.3343432 0.0079319
 4535.40571 2.3267210 0.0080267
 4539.94351 2.3190227 0.0081558
 4544.48131 2.3120868 0.0080233
 4549.01945 2.3013701 0.0080905
 4553.57149 2.2943418 0.0081177
 4558.12353 2.2841666 0.0080496
 4562.68980 2.2723217 0.0080788
 4567.24184 2.2614195 0.0079632
 4571.80846 2.2510352 0.0078441
 4576.38898 2.2370992 0.0079833
 4580.95525 2.2129183 0.0076201
 4585.55001 2.1918187 0.0074196
 4590.13052 2.1757264 0.0074016
 4594.72528 2.1598296 0.0073629
 4599.32003 2.1501946 0.0074373
 4603.91479 2.1398046 0.0075736
 4608.52378 2.1350000 0.0078151
 4613.13278 2.1234121 0.0075948
 4617.74177 2.1189625 0.0076074
 4622.36500 2.1172879 0.0075253
 4626.98823 2.1182323 0.0074521
 4631.61147 2.1229732 0.0073578
 4636.23470 2.1238282 0.0072466
 4640.87217 2.1206806 0.0071014
 4645.52388 2.1199460 0.0071341
 4650.16136 2.1237283 0.0071226
 4654.81307 2.1254268 0.0069412
 4659.46478 2.1288750 0.0071015
 4664.13073 2.1260238 0.0074928
 4668.79668 2.1307116 0.0071294
 4673.46263 2.1320636 0.0071054
 4678.14282 2.1369560 0.0072353
 4682.80842 2.1426208 0.0072925
 4687.50285 2.1537030 0.0073885
 4692.18304 2.1615684 0.0075423
 4696.87747 2.1709085 0.0076652
 4701.57190 2.1841075 0.0076769
 4706.28022 2.1987073 0.0075107
 4710.98889 2.2059116 0.0073442
 4715.69756 2.2226834 0.0071465
 4720.40623 2.2304618 0.0069522
 4725.12879 2.2385032 0.0067470
 4729.85169 2.2427807 0.0066954
 4734.58884 2.2478602 0.0067917
 4739.32599 2.2553308 0.0066989
 4744.06279 2.2604620 0.0065927
 4748.79993 2.2638605 0.0068529
 4753.55132 2.2644732 0.0070276
 4758.30236 2.2738681 0.0068681
 4763.06798 2.2741208 0.0069622
 4767.83326 2.2857294 0.0070722
 4772.59889 2.2965598 0.0070556
 4777.36451 2.3085661 0.0070563
 4782.14403 2.3245702 0.0070579
 4786.92389 2.3433781 0.0070755
 4791.71765 2.3605268 0.0070827
 4796.51175 2.3722129 0.0070687
 4801.30551 2.3826449 0.0070448
 4806.11385 2.4010787 0.0069739
 4810.92185 2.4055228 0.0069942
 4815.73019 2.4168313 0.0069569
 4820.53819 2.4257522 0.0068831
 4825.36077 2.4296000 0.0068551
 4830.18300 2.4330087 0.0068360
 4835.01948 2.4357944 0.0068612
 4839.85630 2.4304414 0.0067929
 4844.69277 2.4234817 0.0067688
 4849.54383 2.4219463 0.0067529
 4854.38031 2.4136610 0.0067423
 4859.24526 2.4077945 0.0067291
 4864.09632 2.3971736 0.0067167
 4868.96127 2.3913863 0.0066871
 4873.84046 2.3831737 0.0066561
 4878.70576 2.3762417 0.0066316
 4883.58495 2.3672359 0.0065633
 4888.46415 2.3611860 0.0065883
 4893.35758 2.3527832 0.0065751
 4898.25135 2.3525226 0.0065652
 4903.15902 2.3491402 0.0065211
 4908.05246 2.3464825 0.0065196
 4912.96013 2.3508084 0.0065255
 4917.88204 2.3492362 0.0065768
 4922.79005 2.3445232 0.0065779
 4927.71196 2.3445132 0.0065230
 4932.64811 2.3378110 0.0064975
 4937.58426 2.3354299 0.0064718
 4942.52041 2.3373694 0.0064504
 4947.45656 2.3347862 0.0064372
 4952.40694 2.3377357 0.0064251
 4957.35733 2.3379810 0.0064125
 4962.32231 2.3423643 0.0063874
 4967.28693 2.3400104 0.0063683
 4972.25156 2.3378456 0.0063479
 4977.21619 2.3363476 0.0063188
 4982.19505 2.3328719 0.0062881
 4987.17392 2.3303757 0.0062166
 4992.16702 2.3262591 0.0061733
 4997.16013 2.3234196 0.0061467
 5002.15324 2.3181043 0.0061251
 5007.16023 2.3128905 0.0061444
 5012.16758 2.3045728 0.0061279
 5017.17492 2.2958572 0.0060720
 5022.19651 2.2860637 0.0060423
 5027.21809 2.2707984 0.0060171
 5032.25391 2.2601421 0.0059943
 5037.27550 2.2478664 0.0059751
 5042.31132 2.2346113 0.0059555
 5047.36103 2.2199302 0.0059332
 5052.41110 2.2057292 0.0059175
 5057.46116 2.1904912 0.0058664
 5062.51122 2.1711617 0.0058538
 5067.57552 2.1544149 0.0058405
 5072.63948 2.1380770 0.0058257
 5077.71802 2.1220922 0.0058008
 5082.79656 2.1029723 0.0057729
 5087.88899 2.0842605 0.0057431
 5092.96753 2.0663579 0.0057201
 5098.06031 2.0495667 0.0057070
 5103.16698 2.0337584 0.0057149
 5108.25976 2.0222204 0.0056376
 5113.36678 2.0141220 0.0055895
 5118.48769 2.0041535 0.0055513
 5123.60895 1.9957186 0.0055175
 5128.73021 1.9868031 0.0054911
 5133.86536 1.9783660 0.0054918
 5138.98662 1.9737866 0.0055046
 5144.13601 1.9659687 0.0055151
 5149.27151 1.9600340 0.0055435
 5154.42090 1.9526837 0.0055765
 5159.58487 1.9485888 0.0056008
 5164.73426 1.9455962 0.0056164
 5169.89824 1.9384795 0.0056293
 5175.07611 1.9324130 0.0055962
 5180.25432 1.9220661 0.0055876
 5185.43219 1.9140530 0.0055900
 5190.62464 1.9060121 0.0055993
 5195.80251 1.8958509 0.0055788
 5201.00886 1.8927798 0.0055880
 5206.20131 1.8943402 0.0055796
 5211.40766 1.8963382 0.0055764
 5216.62825 1.8973475 0.0055749
 5221.83494 1.9047304 0.0055626
 5227.06976 1.9096009 0.0055479
 5232.29035 1.9187433 0.0055504
 5237.52552 1.9312290 0.0055573
 5242.76035 1.9447023 0.0055677
 5248.00941 1.9569240 0.0055907
 5253.24424 1.9724357 0.0056175
 5258.50789 1.9936271 0.0056418
 5263.75695 2.0163598 0.0056590
 5269.03449 2.0445404 0.0056413
 5274.29780 2.0689795 0.0056559
 5279.57534 2.0858417 0.0056585
 5284.85323 2.0991676 0.0057012
 5290.13077 2.1113553 0.0056999
 5295.42255 2.1238022 0.0056891
 5300.72858 2.1360044 0.0056785
 5306.02036 2.1456437 0.0056678
 5311.32638 2.1513820 0.0056623
 5316.64664 2.1551263 0.0056224
 5321.95266 2.1585910 0.0056194
 5327.28716 2.1546633 0.0056177
 5332.60742 2.1546259 0.0056151
 5337.94192 2.1522088 0.0056148
 5343.27642 2.1457093 0.0056195
 5348.62516 2.1292467 0.0056256
 5353.97390 2.1214538 0.0056315
 5359.32263 2.1140611 0.0056049
 5364.68561 2.1061454 0.0056035
 5370.04859 2.0970869 0.0055987
 5375.42581 2.0835247 0.0056270
 5380.78879 2.0638256 0.0056207
 5386.18024 2.0465994 0.0056142
 5391.55746 2.0308440 0.0055813
 5396.94857 2.0134339 0.0055521
 5402.35426 1.9981047 0.0056941
 5407.75996 1.9866194 0.0055915
 5413.16566 1.9715445 0.0055312
 5418.57135 1.9592576 0.0055509
 5423.99094 1.9483079 0.0055881
 5429.42511 1.9413241 0.0056965
 5434.84505 1.9380093 0.0057802
 5440.27922 1.9309735 0.0058564
 5445.72729 1.9241580 0.0059251
 5451.17570 1.9172474 0.0061473
 5456.62411 1.9208180 0.0059443
 5462.07218 1.9148753 0.0058559
 5467.53483 1.9142021 0.0058523
 5473.01172 1.9103382 0.0057990
 5478.48827 1.9079055 0.0057791
 5483.96516 1.9049633 0.0057653
 5489.44171 1.9009298 0.0057639
 5494.93284 1.8944069 0.0057601
 5500.42362 1.8902966 0.0058323
 5505.92899 1.8890668 0.0059938
 5511.43401 1.8850616 0.0057488
 5516.95362 1.8827577 0.0056048
 5522.45865 1.8756388 0.0055290
 5527.99249 1.8750964 0.0054469
 5533.51176 1.8740314 0.0053967
 5539.04560 1.8771482 0.0053008
 5544.59334 1.8784351 0.0052709
 5550.14143 1.8797996 0.0052968
 5555.68917 1.8772480 0.0054289
 5561.23691 1.8720742 0.0052516
 5566.79924 1.8729445 0.0052485
 5572.37546 1.8778437 0.0052454
 5577.93744 1.8810143 0.0052118
 5583.52825 1.8898370 0.0052343
 5589.10446 1.8978573 0.0052253
 5594.69492 1.9036074 0.0051896
 5600.28573 1.9086396 0.0051864
 5605.89043 1.9113891 0.0051854
 5611.49512 1.9157721 0.0052148
 5617.11406 1.9149812 0.0051770
 5622.71910 1.9174447 0.0051714
 5628.35228 1.9161505 0.0051717
 5633.97122 1.9168549 0.0051707
 5639.60439 1.9123731 0.0051689
 5645.25181 1.9085351 0.0051364
 5650.89922 1.8997180 0.0051592
 5656.54664 1.8888608 0.0051508
 5662.20864 1.8759886 0.0051145
 5667.87029 1.8673072 0.0051097
 5673.53195 1.8657072 0.0051329
 5679.20784 1.8594913 0.0050998
 5684.88374 1.8566861 0.0050971
 5690.57387 1.8561666 0.0051217
 5696.26400 1.8480169 0.0050873
 5701.95413 1.8418076 0.0050851
 5707.65851 1.8340899 0.0050551
 5713.36288 1.8292086 0.0050845
 5719.08149 1.8259413 0.0050829
 5724.80010 1.8217925 0.0050517
 5730.53260 1.8234693 0.0050790
 5736.25122 1.8201149 0.0050460
 5741.99830 1.8177922 0.0050399
 5747.74539 1.8152887 0.0050713
 5753.49248 1.8150969 0.0050429
 5759.23957 1.8163027 0.0050349
 5765.00056 1.8165348 0.0050214
 5770.76188 1.8165630 0.0050037
 5776.53745 1.8237057 0.0049734
 5782.31302 1.8223727 0.0049483
 5788.08859 1.8209578 0.0048952
 5793.87805 1.8232321 0.0048945
 5799.68210 1.8238646 0.0048742
 5805.47190 1.8133557 0.0048341
 5811.28984 1.8115696 0.0048521
 5817.09389 1.8089288 0.0048280
 5822.91217 1.8094620 0.0048668
 5828.73046 1.8042845 0.0048510
 5834.56229 1.7995439 0.0048611
 5840.39482 1.7966683 0.0048705
 5846.24193 1.7881114 0.0048724
 5852.08834 1.7794467 0.0048685
 5857.93476 1.7670265 0.0048667
 5863.79576 1.7539496 0.0048417
 5869.65677 1.7426823 0.0048677
 5875.53166 1.7241464 0.0048412
 5881.40656 1.7062197 0.0048664
 5887.28145 1.6842864 0.0048339
 5893.17094 1.6623771 0.0048656
 5899.07431 1.6404849 0.0048422
 5904.96379 1.6196520 0.0048670
 5910.88175 1.5982201 0.0048316
 5916.78513 1.5715175 0.0047979
 5922.70309 1.5544559 0.0048135
 5928.62035 1.5386719 0.0047785
 5934.55220 1.5233154 0.0047995
 5940.48475 1.5051343 0.0047636
 5946.43050 1.4901586 0.0047785
 5952.37693 1.4750758 0.0047404
 5958.33727 1.4604216 0.0047288
 5964.28370 1.4475049 0.0047207
 5970.25793 1.4340984 0.0047082
 5976.21826 1.4222559 0.0047037
 5982.19317 1.4091469 0.0046949
 5988.18198 1.3936027 0.0046884
 5994.17079 1.3786447 0.0046814
 6000.15960 1.3658853 0.0046497
 6006.16300 1.3574371 0.0046755
 6012.16570 1.3514400 0.0046543
 6018.18299 1.3457493 0.0046560
 6024.20027 1.3448921 0.0046529
 6030.23215 1.3430898 0.0046533
 6036.26333 1.3483928 0.0046762
 6042.29520 1.3577683 0.0046503
 6048.34097 1.3673100 0.0046522
 6054.38673 1.3802470 0.0046490
 6060.44639 1.3947271 0.0046488
 6066.50675 1.4105839 0.0046232
 6072.56640 1.4312919 0.0046463
 6078.64065 1.4499347 0.0046258
 6084.71489 1.4660336 0.0046301
 6090.80372 1.4869608 0.0046608
 6096.89186 1.5059452 0.0046385
 6102.99458 1.5252777 0.0046368
 6109.09731 1.5469264 0.0046356
 6115.20003 1.5703954 0.0046415
 6121.31664 1.5904748 0.0046453
 6127.44785 1.6167003 0.0046228
 6133.56515 1.6376812 0.0046487
 6139.71025 1.6606103 0.0046250
 6145.84145 1.6853161 0.0046210
 6151.98654 1.7106148 0.0046332
 6158.14622 1.7362432 0.0046048
 6164.30590 1.7595738 0.0046103
 6170.46558 1.7794425 0.0046203
 6176.63915 1.7972857 0.0046298
 6182.81273 1.8119330 0.0046505
 6189.00088 1.8258854 0.0046731
 6195.18904 1.8366402 0.0046664
 6201.37720 1.8501813 0.0047093
 6207.57925 1.8586812 0.0047256
 6213.79589 1.8640883 0.0047074
 6219.99794 1.8659813 0.0047012
 6226.22847 1.8689733 0.0047186
 6232.44510 1.8656462 0.0046964
 6238.67563 1.8620759 0.0046935
 6244.92075 1.8628669 0.0046856
 6251.16586 1.8547947 0.0046638
 6257.42487 1.8482240 0.0046918
 6263.66999 1.8349905 0.0046911
 6269.94288 1.8176465 0.0047163
 6276.21648 1.8022188 0.0046659
 6282.49007 1.7852871 0.0046557
 6288.76297 1.7632143 0.0046650
 6295.06504 1.7437142 0.0047065
 6301.35253 1.7218010 0.0047121
 6307.65460 1.7035638 0.0047471
 6313.97057 1.6845466 0.0047792
 6320.27264 1.6632302 0.0048047
 6326.60249 1.6403848 0.0047969
 6332.91846 1.6161660 0.0048303
 6339.26290 1.5926319 0.0048204
 6345.59345 1.5732362 0.0048050
 6351.95248 1.5560037 0.0047627
 6358.29692 1.5408551 0.0047404
 6364.65526 1.5219181 0.0047153
 6371.02818 1.5040340 0.0046949
 6377.38721 1.4862815 0.0046805
 6383.77402 1.4631501 0.0046556
 6390.14694 1.4469395 0.0046793
 6396.54834 1.4322639 0.0046799
 6402.93585 1.4177508 0.0046686
 6409.33725 1.4034057 0.0046596
 6415.75254 1.3912667 0.0046266
 6422.16852 1.3774902 0.0046233
 6428.59840 1.3626838 0.0046190
 6435.01369 1.3475529 0.0046109
 6441.45816 1.3350346 0.0046053
 6447.90193 1.3244326 0.0046031
 6454.34639 1.3138703 0.0046029
 6460.80405 1.3088586 0.0045809
 6467.26241 1.3089664 0.0045854
 6473.73535 1.3116645 0.0045971
 6480.20760 1.3126940 0.0046138
 6486.68054 1.3207124 0.0046319
 6493.16668 1.3313600 0.0046512
 6499.66810 1.3426642 0.0046716
 6506.16883 1.3554357 0.0046874
 6512.67025 1.3783101 0.0047058
 6519.18487 1.3935027 0.0047037
 6525.70018 1.4114556 0.0047258
 6532.23008 1.4285713 0.0047394
 6538.75929 1.4477568 0.0047525
 6545.30308 1.4665784 0.0047687
 6551.84618 1.4854581 0.0047811
 6558.40456 1.5024993 0.0047875
 6564.96224 1.5191456 0.0047958
 6571.51992 1.5350831 0.0048069
 6578.09219 1.5524900 0.0048188
 6584.67836 1.5658331 0.0048568
 6591.26521 1.5789346 0.0049264
 6597.85137 1.5855260 0.0048935
 6604.45212 1.5897965 0.0049046
 6611.05218 1.5995283 0.0049636
 6617.66682 1.6052202 0.0050532
 6624.28215 1.6125182 0.0051581
 6630.91068 1.6237628 0.0052622
 6637.53991 1.6337373 0.0053684
 6644.18303 1.6371849 0.0054772
 6650.81226 1.6470859 0.0055702
 6657.46927 1.6578536 0.0056372
 6664.12697 1.6720192 0.0056760
 6670.79857 1.6825936 0.0056874
 6677.47017 1.6895537 0.0056670
 6684.14177 1.6915873 0.0056170
 6690.82795 1.6870281 0.0055560
 6697.51413 1.6827865 0.0054961
 6704.21421 1.6699983 0.0054544
 6710.91428 1.6515177 0.0054610
 6717.62825 1.6277440 0.0055000
 6724.35681 1.6062604 0.0054051
 6731.07147 1.5785171 0.0053623
 6737.80002 1.5538834 0.0053445
 6744.54316 1.5255736 0.0053319
 6751.28561 1.5009063 0.0053233
 6758.04264 1.4782006 0.0053150
 6764.79968 1.4555409 0.0053044
 6771.57129 1.4404188 0.0052921
 6778.32833 1.4254848 0.0053059
 6785.11384 1.4113303 0.0053774
 6791.89866 1.4017380 0.0052506
 6798.69875 1.3926153 0.0052107
 6805.49816 1.3812240 0.0052117
 6812.29825 1.3716313 0.0052304
