# SOURCE  = 'Quimby et al. 2018' /                                                
# OBJECT  = 'PTF09cnd'           /                                                
# Z       =             0.258500 / wavelengths in OBSERVER FRAME                 
# NORM    =          1.58200E-16 / fluxes divided by norm                         
# CLIPPED =                    1 / galaxy emission lines removed                  
# SMOOTHED=                    1 / spectrum has been smoothed                     
# COLUMN01= 'Wavelength (Angstrom)' /                                             
# COLUMN02= 'Flux Density (erg/s/cm2/A)' /                                        
# COLUMN03= 'Flux Density Uncertainty (erg/s/cm2/A)' /                            
# END                                                                             
# 
# 
# 
# 
# 
# 
# 
# 
# 
# 
# Converted to Observer Frame using z=0.258
 3967.07001 2.5763843 0.0776429
 3971.04384 2.5478265 0.0750302
 3975.00182 2.5816536 0.0730197
 3978.97565 2.6212149 0.0711918
 3982.96533 2.6588194 0.0695952
 3986.93916 2.6545110 0.0683466
 3990.92884 2.6739702 0.0672579
 3994.91852 2.6628637 0.0662721
 3998.92404 2.7060623 0.0652919
 4002.91333 2.8015902 0.0644450
 4006.91886 2.8023546 0.0636350
 4010.92438 2.8281868 0.0627195
 4014.94575 2.8290172 0.0617294
 4018.95128 2.8620310 0.0605920
 4022.97265 2.8880036 0.0593776
 4026.99402 2.9250987 0.0582454
 4031.01501 2.9660017 0.0574267
 4035.05223 3.0217154 0.0563180
 4039.08945 3.0149786 0.0551023
 4043.12667 2.9588282 0.0538240
 4047.17973 2.8912439 0.0525740
 4051.21657 2.8441081 0.0513496
 4055.26963 2.7739246 0.0500203
 4059.32270 2.7042198 0.0489288
 4063.39161 2.6681197 0.0476843
 4067.44429 2.6175520 0.0465590
 4071.51321 2.5543773 0.0453956
 4075.58212 2.5164063 0.0442789
 4079.66688 2.4769289 0.0431602
 4083.75126 2.4461236 0.0422045
 4087.82017 2.4143565 0.0412087
 4091.92078 2.4109888 0.0398934
 4096.00516 2.3982725 0.0386532
 4100.10577 2.3764796 0.0376957
 4104.20638 2.3364952 0.0369473
 4108.30660 2.2974608 0.0361736
 4112.42305 2.2683437 0.0354379
 4116.52328 2.2399395 0.0348026
 4120.63973 2.2306132 0.0342590
 4124.77204 2.2104969 0.0340053
 4128.88811 2.1790242 0.0336949
 4133.02041 2.1828940 0.0333712
 4137.15233 2.1608346 0.0332810
 4141.30048 2.1433661 0.0337219
 4145.43240 2.1539178 0.0343514
 4149.58055 2.1499288 0.0330939
 4153.72831 2.1294272 0.0317755
 4157.87646 2.1303439 0.0309512
 4162.04008 2.1309876 0.0304417
 4166.20407 2.1234748 0.0300603
 4170.36769 2.0779977 0.0297742
 4174.54753 2.0662293 0.0295654
 4178.71114 2.0423875 0.0294351
 4182.89099 1.9951609 0.0298657
 4187.07045 1.9939870 0.0293120
 4191.26614 1.9848588 0.0286406
 4195.46145 1.9737924 0.0282325
 4199.65676 1.9406765 0.0281062
 4203.85245 1.9274668 0.0280534
 4208.06360 1.8800800 0.0280517
 4212.25930 1.8509315 0.0285072
 4216.47045 1.8132257 0.0283434
 4220.69745 1.7763345 0.0280269
 4224.90899 1.7262087 0.0276885
 4229.13600 1.7077266 0.0273432
 4233.36300 1.6908234 0.0267635
 4237.60623 1.7130623 0.0261234
 4241.83323 1.7117068 0.0262345
 4246.07608 1.7155406 0.0250942
 4250.33478 1.7231984 0.0237662
 4254.57802 1.7408390 0.0230524
 4258.83671 1.7709872 0.0227169
 4263.09541 1.8156652 0.0226743
 4267.35410 1.8431737 0.0223812
 4271.62904 1.8792295 0.0218743
 4275.90358 1.8966540 0.0218195
 4280.17812 1.9262718 0.0220447
 4284.45267 1.9711943 0.0217837
 4288.74306 1.9853121 0.0215809
 4293.01799 2.0152779 0.0216116
 4297.32423 2.0617797 0.0219119
 4301.61462 2.0915241 0.0223322
 4305.92086 2.1404190 0.0230319
 4310.22710 2.1719067 0.0227075
 4314.53333 2.2044935 0.0228098
 4318.85542 2.2140331 0.0229180
 4323.16166 2.2178633 0.0230791
 4327.48374 2.2333961 0.0229304
 4331.82168 2.2600591 0.0226825
 4336.14415 2.3153982 0.0219293
 4340.48208 2.3466065 0.0215484
 4344.82002 2.3848848 0.0212050
 4349.17380 2.4277549 0.0210230
 4353.52758 2.4464731 0.0208033
 4357.88136 2.4658890 0.0210018
 4362.23514 2.4715695 0.0205902
 4366.58892 2.4680498 0.0197846
 4370.95855 2.4670959 0.0194598
 4375.32818 2.4612985 0.0191142
 4379.71327 2.4520018 0.0187161
 4384.08289 2.4361596 0.0187622
 4388.46837 2.4259772 0.0189844
 4392.86969 2.3533370 0.0186295
 4397.25517 2.3416996 0.0187013
 4401.65649 2.3243048 0.0179595
 4406.05781 2.3199284 0.0172008
 4410.45914 2.3056283 0.0167713
 4414.87631 2.2954855 0.0165942
 4419.29309 2.2837892 0.0165393
 4423.71026 2.2743354 0.0164933
 4428.12743 2.2768340 0.0166772
 4432.56045 2.2751317 0.0169897
 4436.99347 2.2931559 0.0174319
 4441.42648 2.3155465 0.0178027
 4445.87496 2.3359807 0.0182524
 4450.32383 2.3427920 0.0187975
 4454.77269 2.3319120 0.0190078
 4459.22156 2.3276455 0.0188768
 4463.68588 2.3282673 0.0186372
 4468.15060 2.3097279 0.0183699
 4472.61531 2.3028915 0.0182157
 4477.07964 2.2984400 0.0178571
 4481.56020 2.2660244 0.0169833
 4486.04076 2.2529328 0.0164590
 4490.53678 2.2524395 0.0161537
 4495.01734 2.2273302 0.0163203
 4499.51374 2.2205808 0.0159630
 4504.02561 2.2080073 0.0161940
 4508.52202 2.2036657 0.0158686
 4513.03427 2.2093916 0.0156343
 4517.54614 2.2081637 0.0155996
 4522.05840 2.2085626 0.0156422
 4526.58611 2.2133114 0.0156112
 4531.11421 2.2359350 0.0156436
 4535.64232 2.2237182 0.0154994
 4540.18588 2.2310686 0.0156094
 4544.71398 2.2258303 0.0155507
 4549.25754 2.1919262 0.0155360
 4553.81734 2.1748815 0.0153479
 4558.36090 2.1522207 0.0154814
 4562.92070 2.1427205 0.0155560
 4567.49596 2.1352971 0.0158770
 4572.05575 2.1071537 0.0161726
 4576.63101 2.0935931 0.0168386
 4581.20627 2.0847452 0.0164618
 4585.78191 2.0616150 0.0166248
 4590.37302 2.0450833 0.0170870
 4594.96451 2.0241377 0.0164159
 4599.55562 2.0025253 0.0159589
 4604.16257 1.9857161 0.0155212
 4608.76991 1.9917631 0.0152924
 4613.37686 1.9889940 0.0150496
 4617.98381 2.0052762 0.0148187
 4622.60700 2.0121224 0.0145508
 4627.22980 2.0171988 0.0144136
 4631.85260 2.0269971 0.0143193
 4636.49163 2.0291426 0.0143165
 4641.13028 2.0352240 0.0147551
 4645.76893 2.0312369 0.0146644
 4650.40796 2.0462191 0.0146831
 4655.06246 2.0326638 0.0145422
 4659.71695 2.0287023 0.0144209
 4664.37144 2.0259523 0.0142803
 4669.04179 1.9992738 0.0139629
 4673.71252 1.9838839 0.0142260
 4678.38286 1.9402921 0.0142345
 4683.06905 1.8864042 0.0140131
 4687.73939 1.8621947 0.0136301
 4692.42558 1.8314197 0.0135910
 4697.12800 1.8076122 0.0134919
 4701.83004 1.7910523 0.0135726
 4706.53208 1.7963231 0.0134282
 4711.23411 1.7985628 0.0134245
 4715.95200 1.8042690 0.0131858
 4720.65403 1.8119165 0.0127989
 4725.38776 1.8201321 0.0125246
 4730.10565 1.8258345 0.0122819
 4734.83938 1.8287492 0.0123835
 4739.57311 1.8254520 0.0117009
 4744.30684 1.8272111 0.0113911
 4749.05642 1.8157808 0.0112196
 4753.80600 1.8279324 0.0112903
 4758.55558 1.8287199 0.0114065
 4763.32101 1.8099791 0.0121553
 4768.08643 1.8259462 0.0119103
 4772.85186 1.8352412 0.0118490
 4777.61729 1.8441129 0.0119124
 4782.39856 1.8403352 0.0120910
 4787.17983 1.8399495 0.0124071
 4791.97695 1.8389844 0.0125489
 4796.75823 1.8457575 0.0125483
 4801.55535 1.8405823 0.0124599
 4806.36832 1.8292639 0.0121580
 4811.16505 1.8342074 0.0119400
 4815.97802 1.8284346 0.0116417
 4820.79099 1.8154577 0.0116158
 4825.61981 1.8060777 0.0115967
 4830.44862 1.8126341 0.0111194
 4835.27705 1.8147564 0.0107522
 4840.10587 1.8122258 0.0104813
 4844.95053 1.8284740 0.0104172
 4849.79519 1.8256696 0.0103328
 4854.63986 1.8422982 0.0105199
 4859.49998 1.8577358 0.0101423
 4864.36049 1.8608116 0.0100167
 4869.22100 1.8583398 0.0099768
 4874.09697 1.8480014 0.0098977
 4878.97333 1.8458540 0.0098677
 4883.84969 1.8390580 0.0098597
 4888.72566 1.8368979 0.0098932
 4893.61787 1.8320051 0.0096805
 4898.51007 1.8242450 0.0097092
 4903.41774 1.8224365 0.0098449
 4908.30995 1.8120873 0.0101166
 4913.21800 1.8002864 0.0104082
 4918.14151 1.7902509 0.0105827
 4923.06541 1.7797422 0.0108135
 4927.97308 1.7732950 0.0107625
 4932.91283 1.7672487 0.0106575
 4937.83634 1.7539696 0.0105060
 4942.77609 1.7425361 0.0102422
 4947.71545 1.7405764 0.0099694
 4952.67104 1.7242045 0.0097590
 4957.62625 1.6973938 0.0095511
 4962.58185 1.6763366 0.0094276
 4967.53706 1.6624258 0.0093201
 4972.50850 1.6457711 0.0092831
 4977.47956 1.6324865 0.0092566
 4982.46685 1.6187474 0.0093122
 4987.43790 1.6125444 0.0090639
 4992.42480 1.6118288 0.0089735
 4997.42794 1.5998187 0.0090379
 5002.41484 1.5918295 0.0090354
 5007.41798 1.5766858 0.0090411
 5012.43658 1.5747256 0.0091258
 5017.43933 1.5640767 0.0092114
 5022.45832 1.5626391 0.0091709
 5027.49276 1.5552247 0.0092460
 5032.51136 1.5434787 0.0093889
 5037.54580 1.5460010 0.0093842
 5042.58064 1.5349054 0.0095843
 5047.63093 1.5133648 0.0096534
 5052.68122 1.5067229 0.0096718
 5057.73152 1.4907249 0.0097592
 5062.78219 1.4895140 0.0098885
 5067.84834 1.4788289 0.0099570
 5072.91448 1.4769433 0.0101499
 5077.99646 1.4795040 0.0102621
 5083.06260 1.4847608 0.0102454
 5088.14498 1.4915777 0.0102000
 5093.24281 1.4830236 0.0101087
 5098.32480 1.4955397 0.0099831
 5103.43848 1.4940223 0.0098802
 5108.53632 1.4996651 0.0097945
 5113.65000 1.4913388 0.0098867
 5118.76368 1.4978932 0.0100753
 5123.87737 1.5052944 0.0094557
 5129.00690 1.5079921 0.0092829
 5134.13642 1.5083230 0.0092556
 5139.26595 1.5085441 0.0094465
 5144.41133 1.5085167 0.0095496
 5149.55671 1.5114636 0.0095951
 5154.70209 1.5046924 0.0095742
 5159.84746 1.5217817 0.0095515
 5165.00869 1.5247409 0.0094260
 5170.18576 1.5347840 0.0093247
 5175.34699 1.5454831 0.0092304
 5180.52406 1.5482994 0.0091541
 5185.70113 1.5444551 0.0089860
 5190.89405 1.5479670 0.0088438
 5196.08697 1.5521187 0.0086493
 5201.27989 1.5586206 0.0085643
 5206.48865 1.5592026 0.0086432
 5211.68119 1.5584172 0.0089392
 5216.90580 1.5675834 0.0088770
 5222.11457 1.5765187 0.0086429
 5227.33918 1.5800120 0.0086639
 5232.56380 1.5834056 0.0086656
 5237.80387 1.5873663 0.0086703
 5243.04433 1.5868183 0.0087466
 5248.28479 1.5869571 0.0086877
 5253.52526 1.5822841 0.0086620
 5258.78118 1.5862747 0.0086101
 5264.03749 1.5807981 0.0085484
 5269.30964 1.5830406 0.0085036
 5274.58180 1.5714186 0.0084471
 5279.85357 1.5587636 0.0084188
 5285.12573 1.5439236 0.0084052
 5290.41373 1.5348359 0.0084941
 5295.70135 1.5226531 0.0084762
 5301.00520 1.5131137 0.0084331
 5306.30866 1.5070221 0.0084301
 5311.61251 1.5043626 0.0083704
 5316.91637 1.5044217 0.0083690
 5322.23568 1.5123338 0.0083590
 5327.55538 1.5140656 0.0083455
 5332.89054 1.5099643 0.0083146
 5338.22608 1.5102205 0.0082743
 5343.56124 1.5219877 0.0082216
 5348.91263 1.5240872 0.0081165
 5354.26364 1.5296694 0.0080471
 5359.61504 1.5352994 0.0079628
 5364.96604 1.5402496 0.0078901
 5370.33328 1.5390472 0.0078343
 5375.70014 1.5293260 0.0078195
 5381.08284 1.5291446 0.0077605
 5386.46593 1.5224041 0.0077725
 5391.84863 1.5117013 0.0077616
 5397.24756 1.5033153 0.0076992
 5402.63027 1.4944059 0.0076829
 5408.04466 1.4908501 0.0077220
 5413.44360 1.4784960 0.0077580
 5418.85799 1.4678717 0.0078221
 5424.28824 1.4593648 0.0078615
 5429.70302 1.4454867 0.0080309
 5435.13326 1.4272128 0.0081274
 5440.56351 1.4219689 0.0080720
 5446.00960 1.4183758 0.0081314
 5451.45608 1.4085968 0.0082511
 5456.91801 1.4081134 0.0084220
 5462.36411 1.4028155 0.0085997
 5467.82604 1.4015412 0.0087971
 5473.30383 1.3972025 0.0089970
 5478.76616 1.4040532 0.0091666
 5484.24394 1.4079782 0.0092235
 5489.73757 1.4008876 0.0090965
 5495.23121 1.3973318 0.0089443
 5500.72484 1.3942086 0.0087424
 5506.21847 1.3957753 0.0085047
 5511.72796 1.4004084 0.0082657
 5517.23744 1.3968076 0.0080606
 5522.76315 1.3944299 0.0079172
 5528.28848 1.3979554 0.0078247
 5533.81381 1.3976680 0.0079166
 5539.33914 1.3925524 0.0078501
 5544.88031 1.3940622 0.0077289
 5550.42149 1.3911858 0.0076480
 5555.97851 1.3848710 0.0076248
 5561.53553 1.3760231 0.0075702
 5567.09255 1.3672386 0.0075090
 5572.66504 1.3521001 0.0074890
 5578.23791 1.3376378 0.0074320
 5583.81078 1.3273427 0.0073687
 5589.39950 1.3073915 0.0073245
 5594.98821 1.2839417 0.0072650
 5600.59278 1.2652546 0.0071807
 5606.18150 1.2426357 0.0071561
 5611.78606 1.2232741 0.0071208
 5617.40609 1.2010756 0.0070912
 5623.02650 1.1775362 0.0070751
 5628.64691 1.1600575 0.0070666
 5634.26733 1.1471761 0.0070590
 5639.90359 1.1306944 0.0070133
 5645.53946 1.1143683 0.0070126
 5651.19157 1.1087589 0.0070044
 5656.84367 1.1001896 0.0069953
 5662.51124 1.0951242 0.0070284
 5668.16335 1.0852021 0.0070138
 5673.83130 1.0797368 0.0069501
 5679.51472 1.0717607 0.0069433
 5685.18267 1.0754929 0.0069297
 5690.86648 1.0835429 0.0069160
 5696.56574 1.0864110 0.0069121
 5702.26539 1.0880557 0.0068698
 5707.96504 1.0932907 0.0068639
 5713.68015 1.0936850 0.0068960
 5719.37980 1.0892240 0.0068883
 5725.11075 1.0905346 0.0068311
 5730.82625 1.0871030 0.0068111
 5736.55721 1.0859061 0.0067952
 5742.30440 1.0830935 0.0067753
 5748.03536 1.0844610 0.0067528
 5753.78255 1.0874598 0.0067368
 5759.54520 1.0962110 0.0067258
 5765.30824 1.0995363 0.0067249
 5771.07089 1.1088994 0.0067246
 5776.84978 1.1141242 0.0066829
 5782.61243 1.1218917 0.0066841
 5788.40678 1.1363651 0.0067286
 5794.18567 1.1520439 0.0067227
 5799.98001 1.1625600 0.0066819
 5805.79021 1.1616557 0.0066963
 5811.58494 1.1687554 0.0067006
 5817.41098 1.1747617 0.0067022
 5823.22118 1.1817538 0.0066988
 5829.04761 1.1818664 0.0067033
 5834.87365 1.1811309 0.0066935
 5840.71554 1.1759102 0.0067321
 5846.54158 1.1644500 0.0068268
 5852.39970 1.1645387 0.0068784
 5858.24159 1.1610452 0.0068975
 5864.11518 1.1550231 0.0069455
 5869.97291 1.1559126 0.0070330
 5875.84650 1.1536239 0.0070086
 5881.72047 1.1572521 0.0070101
 5887.59405 1.1549253 0.0071918
 5893.48348 1.1596681 0.0070760
 5899.38876 1.1574717 0.0070081
 5905.27820 1.1546454 0.0070155
 5911.18347 1.1511118 0.0070393
 5917.10460 1.1433994 0.0071518
 5923.00988 1.1493089 0.0072707
 5928.94685 1.1514812 0.0074198
 5934.86798 1.1520705 0.0076138
 5940.80495 1.1370425 0.0077058
 5946.74193 1.1243168 0.0078029
 5952.69475 1.1124781 0.0078030
 5958.64757 1.0895767 0.0077251
 5964.60039 1.0809734 0.0075776
 5970.56906 1.0718426 0.0073556
 5976.53773 1.0607929 0.0071903
 5982.52224 1.0467552 0.0070159
 5988.49091 1.0343332 0.0068298
 5994.49128 1.0217606 0.0067901
 6000.47579 1.0089517 0.0068524
 6006.47577 1.0031954 0.0066639
 6012.49198 0.9963403 0.0065983
 6018.50819 0.9922936 0.0065967
 6024.52440 0.9914627 0.0065551
 6030.54061 0.9921808 0.0065680
 6036.57228 0.9975522 0.0065687
 6042.62019 0.9998283 0.0065712
 6048.65225 1.0027498 0.0065896
 6054.70015 1.0090425 0.0065911
 6060.76352 1.0149695 0.0066832
 6066.82727 1.0195158 0.0067074
 6072.89102 1.0260868 0.0067650
 6078.95439 1.0335499 0.0068236
 6085.03399 1.0411086 0.0068648
 6091.12944 1.0483135 0.0068962
 6097.22450 1.0484681 0.0069277
 6103.31995 1.0603238 0.0068994
 6109.41501 1.0629107 0.0069572
 6115.52630 1.0615658 0.0069363
 6121.63721 1.0667129 0.0069767
 6127.76435 1.0604150 0.0069359
 6133.89111 1.0505896 0.0069718
 6140.03410 1.0449945 0.0069116
 6146.16086 1.0330665 0.0068924
 6152.31969 1.0212238 0.0068620
 6158.46230 1.0064254 0.0068384
 6164.62113 0.9905928 0.0067950
 6170.79543 0.9769322 0.0067260
 6176.97012 0.9572549 0.0067310
 6183.14441 0.9447790 0.0066531
 6189.31871 0.9305567 0.0066549
 6195.50924 0.9104994 0.0066082
 6201.71524 0.8973951 0.0066271
 6207.90538 0.8913159 0.0065877
 6214.12761 0.8771882 0.0065612
 6220.33360 0.8736303 0.0065366
 6226.55544 0.8647143 0.0065450
 6232.77767 0.8540807 0.0066012
 6239.01536 0.8476974 0.0066936
 6245.25304 0.8360629 0.0067681
 6251.50658 0.8367620 0.0068990
 6257.74465 0.8374853 0.0069341
 6264.01404 0.8307570 0.0069864
 6270.26757 0.8383590 0.0069932
 6276.53695 0.8470588 0.0069425
 6282.82218 0.8535119 0.0068743
 6289.10741 0.8594413 0.0067750
 6295.39264 0.8617601 0.0066523
 6301.69411 0.8722436 0.0065444
 6307.99518 0.8782756 0.0064398
 6314.29626 0.8809363 0.0063587
 6320.61319 0.8900917 0.0063567
 6326.93011 0.8966345 0.0063064
 6333.26288 0.9012492 0.0063375
 6339.59565 0.9054053 0.0063276
 6345.92843 0.9100479 0.0062987
 6352.27705 0.9116501 0.0063482
 6358.62567 0.9196038 0.0063855
 6364.99013 0.9272454 0.0065124
 6371.35460 0.9401557 0.0066584
 6377.73453 0.9425528 0.0067559
 6384.09899 0.9485771 0.0068956
 6390.49515 0.9601980 0.0069421
 6396.89132 0.9689094 0.0069764
 6403.28748 0.9714015 0.0069744
 6409.68364 0.9736357 0.0069377
 6416.09526 0.9741175 0.0068631
 6422.50727 0.9768191 0.0067615
 6428.93513 0.9732893 0.0066060
 6435.36298 0.9661353 0.0065337
 6441.79084 0.9565464 0.0064432
 6448.23416 0.9456820 0.0063767
 6454.69371 0.9344168 0.0064061
 6461.13741 0.9217079 0.0064094
 6467.61242 0.9094998 0.0063839
 6474.07198 0.8942254 0.0064059
 6480.54737 0.8863327 0.0064115
 6487.02277 0.8739375 0.0063669
 6493.51325 0.8645499 0.0063274
 6500.00449 0.8525531 0.0063498
 6506.51197 0.8400688 0.0063476
 6513.01868 0.8276443 0.0063140
 6519.52538 0.8107324 0.0063301
 6526.04833 0.7919270 0.0063528
 6532.57127 0.7727411 0.0063755
 6539.10967 0.7500224 0.0063692
 6545.64807 0.7258457 0.0064231
 6552.18647 0.7054297 0.0064082
 6558.74111 0.6810908 0.0063569
 6565.31120 0.6589756 0.0062814
 6571.86584 0.6429450 0.0062501
 6578.45217 0.6269044 0.0062104
 6585.02226 0.6129646 0.0061855
 6591.60859 0.6055912 0.0061660
 6598.19415 0.6052668 0.0061655
 6604.79594 0.6101322 0.0061794
 6611.39851 0.6108921 0.0061614
 6618.01576 0.6155798 0.0061751
 6624.63378 0.6261577 0.0061769
 6631.26727 0.6298224 0.0061663
 6637.88529 0.6339526 0.0061814
 6644.53424 0.6380205 0.0062110
 6651.16773 0.6368892 0.0062615
 6657.81745 0.6377882 0.0063147
 6664.48263 0.6361623 0.0063815
 6671.14781 0.6372828 0.0064166
 6677.81299 0.6422746 0.0064977
 6684.49440 0.6465026 0.0065638
 6691.17505 0.6495234 0.0066712
 6697.87192 0.6598190 0.0068138
 6704.56880 0.6662503 0.0069523
 6711.28191 0.6776305 0.0071010
 6717.99424 0.6947772 0.0072420
 6724.70735 0.7027320 0.0073205
 6731.43592 0.7152615 0.0074467
 6738.16449 0.7266805 0.0075670
 6744.90852 0.7382800 0.0076753
 6751.65333 0.7489478 0.0077705
 6758.39736 0.7528614 0.0078399
 6765.15762 0.7565389 0.0079156
 6771.91789 0.7575908 0.0079968
 6778.69439 0.7549616 0.0081094
 6785.47011 0.7573439 0.0082598
 6792.26207 0.7603811 0.0084000
 6799.05403 0.7665612 0.0085622
 6805.84599 0.7721696 0.0087793
 6812.65341 0.7843784 0.0088687
 6819.47707 0.7867771 0.0090359
 6826.28526 0.7965126 0.0092388
 6833.12438 0.8014963 0.0094603
 6839.94803 0.8134719 0.0096780
 6846.78715 0.8208517 0.0099158
 6853.64250 0.8253253 0.0101058
 6860.49785 0.8359398 0.0102452
 6867.35320 0.8373660 0.0103460
 6874.22401 0.8357182 0.0104646
 6881.09482 0.8349406 0.0104972
 6887.98186 0.8317681 0.0104200
 6894.86890 0.8311232 0.0104451
 6901.75595 0.8243710 0.0104799
 6908.65845 0.8235304 0.0103316
 6915.57719 0.8261124 0.0103829
 6922.47970 0.8258386 0.0105104
 6929.41390 0.8242351 0.0109065
 6936.33264 0.8113251 0.0113049
 6943.26684 0.8042787 0.0113280
 6950.21727 0.7914008 0.0120950
 6957.16770 0.7789902 0.0119425
 6964.13360 0.7686585 0.0120936
 6971.08403 0.7512164 0.0117070
 6978.06539 0.7282905 0.0115189
 6985.04752 0.7095076 0.0109031
 6992.02964 0.6898848 0.0112182
 6999.01100 0.6679506 0.0110732
 7006.02482 0.6473395 0.0113257
 7013.02241 0.6276635 0.0116026
 7020.03624 0.6059153 0.0115361
 7027.06552 0.5932369 0.0117300
 7034.07934 0.5782236 0.0114154
 7041.12409 0.5669376 0.0113978
 7048.15337 0.5604351 0.0113934
 7055.21435 0.5591600 0.0109734
 7062.25987 0.5546821 0.0109186
 7069.33708 0.5457406 0.0108563
 7076.39806 0.5509123 0.0109190
 7083.47450 0.5538758 0.0110093
 7090.56717 0.5580074 0.0106908
 7097.64439 0.5652671 0.0107810
 7104.75252 0.5679201 0.0108910
 7111.84520 0.5726069 0.0109157
 7118.96956 0.5851970 0.0110978
 7126.07847 0.5924728 0.0111490
 7133.20284 0.6035581 0.0112108
 7140.34267 0.6127681 0.0114587
 7147.48327 0.6208228 0.0115088
 7154.63934 0.6310768 0.0115351
 7161.77917 0.6455359 0.0113868
 7168.95146 0.6572691 0.0112862
 7176.12299 0.6737728 0.0112896
 7183.29528 0.6875524 0.0110974
 7190.48227 0.7069218 0.0108966
