# SOURCE  = 'Quimby et al. 2018' /                                                
# OBJECT  = 'PTF09cnd'           /                                                
# Z       =             0.258500 / wavelengths in OBSERVER FRAME                 
# NORM    =          7.76240E-16 / fluxes divided by norm                         
# CLIPPED =                    1 / galaxy emission lines removed                  
# SMOOTHED=                    1 / spectrum has been smoothed                     
# COLUMN01= 'Wavelength (Angstrom)' /                                             
# COLUMN02= 'Flux Density (erg/s/cm2/A)' /                                        
# COLUMN03= 'Flux Density Uncertainty (erg/s/cm2/A)' /                            
# END                                                                             
# 
# 
# 
# 
# 
# 
# 
# 
# 
# 
# Converted to Observer Frame using z=0.258
 3990.92884 1.7370135 0.0177218
 3994.91852 1.7615026 0.0171853
 3998.92404 1.7926329 0.0166698
 4002.91333 1.8099363 0.0162067
 4006.91886 1.8276173 0.0157612
 4010.92438 1.8570216 0.0152161
 4014.94575 1.8890362 0.0148254
 4018.95128 1.9258868 0.0144595
 4022.97265 1.9576592 0.0141175
 4026.99402 1.9808291 0.0138128
 4031.01501 1.9948550 0.0135218
 4035.05223 2.0120330 0.0132534
 4039.08945 2.0298092 0.0132178
 4043.12667 2.0425522 0.0133143
 4047.17973 2.0818732 0.0127055
 4051.21657 2.1055312 0.0121700
 4055.26963 2.1154597 0.0119047
 4059.32270 2.1369939 0.0116903
 4063.39161 2.1532376 0.0115267
 4067.44429 2.1607869 0.0113760
 4071.51321 2.1643732 0.0112452
 4075.58212 2.1630301 0.0111065
 4079.66688 2.1583703 0.0109689
 4083.75126 2.1495588 0.0107416
 4087.82017 2.1294706 0.0105654
 4091.92078 2.0988305 0.0103776
 4096.00516 2.0577893 0.0102080
 4100.10577 2.0092967 0.0100230
 4104.20638 1.9627641 0.0098393
 4108.30660 1.9093415 0.0096696
 4112.42305 1.8563215 0.0093561
 4116.52328 1.8048631 0.0091401
 4120.63973 1.7418665 0.0089483
 4124.77204 1.6806947 0.0087358
 4128.88811 1.6239223 0.0085434
 4133.02041 1.5708402 0.0083420
 4137.15233 1.5147702 0.0081500
 4141.30048 1.4650561 0.0079146
 4145.43240 1.4151334 0.0077359
 4149.58055 1.3666946 0.0075818
 4153.72831 1.3178008 0.0074200
 4157.87646 1.2743891 0.0072661
 4162.04008 1.2256083 0.0071459
 4166.20407 1.1938258 0.0069632
 4170.36769 1.1636721 0.0068954
 4174.54753 1.1316563 0.0067150
 4178.71114 1.0989753 0.0065659
 4182.89099 1.0677398 0.0064328
 4187.07045 1.0432639 0.0062897
 4191.26614 1.0108114 0.0061136
 4195.46145 0.9815437 0.0059929
 4199.65676 0.9580696 0.0058843
 4203.85245 0.9319408 0.0058039
 4208.06360 0.9128283 0.0057208
 4212.25930 0.8925069 0.0056225
 4216.47045 0.8789477 0.0055582
 4220.69745 0.8686827 0.0055197
 4224.90899 0.8609304 0.0054702
 4229.13600 0.8578946 0.0054260
 4233.36300 0.8570083 0.0054040
 4237.60623 0.8656209 0.0053297
 4241.83323 0.8819382 0.0053019
 4246.07608 0.9073549 0.0052512
 4250.33478 0.9361876 0.0052177
 4254.57802 0.9714043 0.0051608
 4258.83671 1.0128369 0.0050839
 4263.09541 1.0547196 0.0050250
 4267.35410 1.0988721 0.0049654
 4271.62904 1.1468116 0.0049225
 4275.90358 1.2005230 0.0048312
 4280.17812 1.2510974 0.0048631
 4284.45267 1.3039635 0.0049167
 4288.74306 1.3683296 0.0048011
 4293.01799 1.4231162 0.0047258
 4297.32423 1.4819875 0.0046704
 4301.61462 1.5371628 0.0046619
 4305.92086 1.5918632 0.0046868
 4310.22710 1.6454210 0.0047017
 4314.53333 1.7002648 0.0047263
 4318.85542 1.7533605 0.0047569
 4323.16166 1.8057283 0.0048075
 4327.48374 1.8570052 0.0048298
 4331.82168 1.9092580 0.0048698
 4336.14415 1.9564673 0.0048356
 4340.48208 2.0054083 0.0048875
 4344.82002 2.0483496 0.0049958
 4349.17380 2.0945778 0.0049140
 4353.52758 2.1461587 0.0047859
 4357.88136 2.1942265 0.0047663
 4362.23514 2.2367489 0.0048338
 4366.58892 2.2797444 0.0048355
 4370.95855 2.3174064 0.0046981
 4375.32818 2.3497188 0.0046997
 4379.71327 2.3777018 0.0047027
 4384.08289 2.4031019 0.0047360
 4388.46837 2.4198561 0.0047527
 4392.86969 2.4387794 0.0048298
 4397.25517 2.4465244 0.0049169
 4401.65649 2.4487450 0.0049155
 4406.05781 2.4430056 0.0048379
 4410.45914 2.4358020 0.0048088
 4414.87631 2.4265549 0.0047357
 4419.29309 2.4122758 0.0045640
 4423.71026 2.3947115 0.0044664
 4428.12743 2.3794465 0.0043871
 4432.56045 2.3650990 0.0043268
 4436.99347 2.3508098 0.0042265
 4441.42648 2.3339446 0.0041852
 4445.87496 2.3209000 0.0041415
 4450.32383 2.3042746 0.0041480
 4454.77269 2.2932458 0.0041898
 4459.22156 2.2799909 0.0041528
 4463.68588 2.2754052 0.0040911
 4468.15060 2.2735445 0.0041266
 4472.61531 2.2732036 0.0042452
 4477.07964 2.2709899 0.0041394
 4481.56020 2.2773232 0.0040622
 4486.04076 2.2803361 0.0040367
 4490.53678 2.2877140 0.0040210
 4495.01734 2.2921019 0.0039869
 4499.51374 2.2988553 0.0039592
 4504.02561 2.3044107 0.0039535
 4508.52202 2.3075967 0.0039309
 4513.03427 2.3121979 0.0039007
 4517.54614 2.3150489 0.0038994
 4522.05840 2.3173640 0.0038823
 4526.58611 2.3185501 0.0038624
 4531.11421 2.3193705 0.0038462
 4535.64232 2.3221428 0.0038534
 4540.18588 2.3196356 0.0038414
 4544.71398 2.3188472 0.0038355
 4549.25754 2.3149610 0.0038565
 4553.81734 2.3132463 0.0038289
 4558.36090 2.3077605 0.0038488
 4562.92070 2.3031669 0.0038669
 4567.49596 2.3059258 0.0038330
 4572.05575 2.3098686 0.0038491
 4576.63101 2.3105645 0.0038617
 4581.20627 2.3191197 0.0038190
 4585.78191 2.3259175 0.0038232
 4590.37302 2.3272152 0.0038296
 4594.96451 2.3378389 0.0037850
 4599.55562 2.3481989 0.0037911
 4604.16257 2.3570421 0.0037751
 4608.76991 2.3656776 0.0037508
 4613.37686 2.3743327 0.0037521
 4617.98381 2.3866262 0.0037054
 4622.60700 2.3975987 0.0037103
 4627.22980 2.4093313 0.0037157
 4631.85260 2.4180493 0.0036732
 4636.49163 2.4257240 0.0036829
 4641.13028 2.4284866 0.0036985
 4645.76893 2.4357467 0.0036680
 4650.40796 2.4407623 0.0036860
 4655.06246 2.4429696 0.0036763
 4659.71695 2.4489362 0.0036876
 4664.37144 2.4544370 0.0036707
 4669.04179 2.4551511 0.0037354
 4673.71252 2.4498005 0.0037518
 4678.38286 2.4437406 0.0036537
 4683.06905 2.4281747 0.0036175
 4687.73939 2.4159009 0.0036579
 4692.42558 2.3993299 0.0036662
 4697.12800 2.3764546 0.0037396
 4701.83004 2.3517087 0.0037856
 4706.53208 2.3278644 0.0038102
 4711.23411 2.2992678 0.0038100
 4715.95200 2.2733159 0.0037965
 4720.65403 2.2467661 0.0037164
 4725.38776 2.2255223 0.0036182
 4730.10565 2.2064579 0.0035582
 4734.83938 2.1946285 0.0034586
 4739.57311 2.1844068 0.0034018
 4744.30684 2.1777444 0.0033216
 4749.05642 2.1732821 0.0032762
 4753.80600 2.1724396 0.0032864
 4758.55558 2.1769807 0.0032905
 4763.32101 2.1798341 0.0032935
 4768.08643 2.1794481 0.0032136
 4772.85186 2.1848483 0.0032043
 4777.61729 2.1864984 0.0031943
 4782.39856 2.1941168 0.0031807
 4787.17983 2.1997740 0.0031723
 4791.97695 2.2082696 0.0031686
 4796.75823 2.2151141 0.0031652
 4801.55535 2.2252066 0.0031394
 4806.36832 2.2299366 0.0031585
 4811.16505 2.2430050 0.0031316
 4815.97802 2.2540591 0.0031487
 4820.79099 2.2612944 0.0031390
 4825.61981 2.2669909 0.0031031
 4830.44862 2.2730913 0.0031099
 4835.27705 2.2749839 0.0030705
 4840.10587 2.2745559 0.0030466
 4844.95053 2.2777469 0.0030447
 4849.79519 2.2828128 0.0030002
 4854.63986 2.2846434 0.0029727
 4859.49998 2.2842951 0.0029547
 4864.36049 2.2872841 0.0029333
 4869.22100 2.2893915 0.0029135
 4874.09697 2.2934394 0.0028980
 4878.97333 2.2964227 0.0028794
 4883.84969 2.3001871 0.0028659
 4888.72566 2.3008711 0.0028584
 4893.61787 2.3062987 0.0028507
 4898.51007 2.3079455 0.0029085
 4903.41774 2.3152478 0.0028626
 4908.30995 2.3137424 0.0028457
 4913.21800 2.3093402 0.0028281
 4918.14151 2.3022525 0.0028485
 4923.06541 2.2978833 0.0028991
 4927.97308 2.2871432 0.0029079
 4932.91283 2.2783384 0.0029324
 4937.83634 2.2730653 0.0029453
 4942.77609 2.2716510 0.0029516
 4947.71545 2.2690396 0.0029397
 4952.67104 2.2611823 0.0029177
 4957.62625 2.2612391 0.0028843
 4962.58185 2.2568889 0.0028387
 4967.53706 2.2522163 0.0027847
 4972.50850 2.2531116 0.0027154
 4977.47956 2.2546012 0.0026914
 4982.46685 2.2547314 0.0026651
 4987.43790 2.2564507 0.0026462
 4992.42480 2.2541032 0.0027107
 4997.42794 2.2508531 0.0026989
 5002.41484 2.2453446 0.0026670
 5007.41798 2.2397549 0.0026570
 5012.43658 2.2349806 0.0026668
 5017.43933 2.2298748 0.0026948
 5022.45832 2.2236655 0.0026859
 5027.49276 2.2247136 0.0026939
 5032.51136 2.2268240 0.0026993
 5037.54580 2.2304277 0.0027010
 5042.58064 2.2338686 0.0027016
 5047.63093 2.2334862 0.0027039
 5052.68122 2.2351830 0.0027021
 5057.73152 2.2334030 0.0026814
 5062.78219 2.2355330 0.0026951
 5067.84834 2.2390485 0.0026871
 5072.91448 2.2370706 0.0026757
 5077.99646 2.2302909 0.0026481
 5083.06260 2.2244530 0.0026570
 5088.14498 2.2127907 0.0026482
 5093.24281 2.2058122 0.0026395
 5098.32480 2.1987350 0.0026134
 5103.43848 2.1908171 0.0026037
 5108.53632 2.1842744 0.0025937
 5113.65000 2.1756289 0.0026020
 5118.76368 2.1728330 0.0025762
 5123.87737 2.1696787 0.0025662
 5129.00690 2.1679418 0.0025556
 5134.13642 2.1678107 0.0025442
 5139.26595 2.1681397 0.0025330
 5144.41133 2.1671612 0.0025190
 5149.55671 2.1656563 0.0025048
 5154.70209 2.1646719 0.0024939
 5159.84746 2.1605680 0.0024704
 5165.00869 2.1599805 0.0024627
 5170.18576 2.1555328 0.0024576
 5175.34699 2.1527448 0.0024709
 5180.52406 2.1509461 0.0024704
 5185.70113 2.1495366 0.0025049
 5190.89405 2.1496196 0.0024922
 5196.08697 2.1495128 0.0024520
 5201.27989 2.1543281 0.0024525
 5206.48865 2.1546426 0.0024764
 5211.68119 2.1551864 0.0025060
 5216.90580 2.1594098 0.0025428
 5222.11457 2.1595385 0.0025808
 5227.33918 2.1647160 0.0026114
 5232.56380 2.1691272 0.0026300
 5237.80387 2.1740117 0.0027323
 5243.04433 2.1730576 0.0026296
 5248.28479 2.1733613 0.0025804
 5253.52526 2.1772206 0.0025558
 5258.78118 2.1787527 0.0025562
 5264.03749 2.1833184 0.0025420
 5269.30964 2.1836450 0.0025332
 5274.58180 2.1868267 0.0025170
 5279.85357 2.1917357 0.0025306
 5285.12573 2.1977735 0.0026068
 5290.41373 2.2007954 0.0025560
 5295.70135 2.2034087 0.0024931
 5301.00520 2.2070746 0.0024591
 5306.30866 2.2059774 0.0024202
 5311.61251 2.2077553 0.0023786
 5316.91637 2.2054379 0.0023766
 5322.23568 2.1992238 0.0023322
 5327.55538 2.1926916 0.0022831
 5332.89054 2.1843574 0.0023053
 5338.22608 2.1750627 0.0023890
 5343.56124 2.1634924 0.0023526
 5348.91263 2.1530993 0.0023655
 5354.26364 2.1456215 0.0023937
 5359.61504 2.1370878 0.0024148
 5364.96604 2.1290281 0.0024514
 5370.33328 2.1168768 0.0024938
 5375.70014 2.1101992 0.0026137
 5381.08284 2.1056645 0.0024144
 5386.46593 2.0973320 0.0023709
 5391.84863 2.0909047 0.0023790
 5397.24756 2.0870345 0.0024055
 5402.63027 2.0834496 0.0024399
 5408.04466 2.0829711 0.0024804
 5413.44360 2.0829036 0.0025350
 5418.85799 2.0766323 0.0026690
 5424.28824 2.0750260 0.0026140
 5429.70302 2.0741832 0.0025314
 5435.13326 2.0734379 0.0024594
 5440.56351 2.0701506 0.0023965
 5446.00960 2.0638628 0.0023300
 5451.45608 2.0613966 0.0022679
 5456.91801 2.0589681 0.0022177
 5462.36411 2.0540793 0.0021932
 5467.82604 2.0462306 0.0022387
 5473.30383 2.0397978 0.0022980
 5478.76616 2.0345161 0.0022646
 5484.24394 2.0263228 0.0022017
 5489.73757 2.0177443 0.0022019
 5495.23121 2.0117137 0.0022234
 5500.72484 2.0054104 0.0021765
 5506.21847 1.9986047 0.0021696
 5511.72796 1.9960065 0.0021829
 5517.23744 1.9892122 0.0022099
 5522.76315 1.9840719 0.0022433
 5528.28848 1.9836566 0.0022785
 5533.81381 1.9843543 0.0023127
 5539.33914 1.9847282 0.0023408
 5544.88031 1.9863104 0.0023578
 5550.42149 1.9854406 0.0023580
 5555.97851 1.9860286 0.0023469
 5561.53553 1.9885472 0.0023248
 5567.09255 1.9920270 0.0022946
 5572.66504 1.9968247 0.0022494
 5578.23791 2.0021214 0.0022178
 5583.81078 2.0078785 0.0021930
 5589.39950 2.0139239 0.0021831
 5594.98821 2.0203862 0.0022006
 5600.59278 2.0289972 0.0022354
 5606.18150 2.0350747 0.0021744
 5611.78606 2.0421534 0.0021850
 5617.40609 2.0498421 0.0021692
 5623.02650 2.0557866 0.0021671
 5628.64691 2.0623386 0.0021658
 5634.26733 2.0656712 0.0021655
 5639.90359 2.0667591 0.0021655
 5645.53946 2.0669482 0.0021653
 5651.19157 2.0657501 0.0021643
 5656.84367 2.0601201 0.0021506
 5662.51124 2.0538406 0.0021499
 5668.16335 2.0474298 0.0021492
 5673.83130 2.0388083 0.0021481
 5679.51472 2.0285985 0.0021472
 5685.18267 2.0147755 0.0021597
 5690.86648 2.0011723 0.0021454
 5696.56574 1.9895470 0.0021433
 5702.26539 1.9745491 0.0021408
 5707.96504 1.9646343 0.0021372
 5713.68015 1.9510552 0.0021330
 5719.37980 1.9379901 0.0021276
 5725.11075 1.9258121 0.0021654
 5730.82625 1.9142184 0.0021250
 5736.55721 1.9039913 0.0021065
 5742.30440 1.8930904 0.0021074
 5748.03536 1.8828707 0.0021096
 5753.78255 1.8739525 0.0021323
 5759.54520 1.8639942 0.0021574
 5765.30824 1.8574618 0.0021812
 5771.07089 1.8508584 0.0022012
 5776.84978 1.8449976 0.0022117
 5782.61243 1.8383116 0.0022154
 5788.40678 1.8318111 0.0022029
 5794.18567 1.8273520 0.0021828
 5799.98001 1.8218950 0.0021410
 5805.79021 1.8190283 0.0021131
 5811.58494 1.8187000 0.0021020
 5817.41098 1.8182908 0.0020732
 5823.22118 1.8147998 0.0020501
 5829.04761 1.8128473 0.0020569
 5834.87365 1.8116831 0.0021004
 5840.71554 1.8131229 0.0020840
 5846.54158 1.8155613 0.0020649
 5852.39970 1.8147711 0.0020704
 5858.24159 1.8170446 0.0020744
 5864.11518 1.8190839 0.0020660
 5869.97291 1.8253146 0.0020808
 5875.84650 1.8339075 0.0020799
 5881.72047 1.8409899 0.0020663
 5887.59405 1.8490039 0.0020619
 5893.48348 1.8531502 0.0020687
 5899.38876 1.8562011 0.0020641
 5905.27820 1.8616928 0.0020497
 5911.18347 1.8640964 0.0020494
 5917.10460 1.8698573 0.0020651
 5923.00988 1.8709608 0.0020970
 5928.94685 1.8683290 0.0020838
 5934.86798 1.8638422 0.0020561
 5940.80495 1.8605812 0.0020544
 5946.74193 1.8529454 0.0020724
 5952.69475 1.8439646 0.0020971
 5958.64757 1.8322299 0.0021145
 5964.60039 1.8208348 0.0021495
 5970.56906 1.8119591 0.0021575
 5976.53773 1.7988201 0.0021689
 5982.52224 1.7884796 0.0021830
 5988.49091 1.7777331 0.0021563
 5994.49128 1.7698160 0.0021364
 6000.47579 1.7583858 0.0021125
 6006.47577 1.7465876 0.0020836
 6012.49198 1.7381237 0.0020567
 6018.50819 1.7324412 0.0020248
 6024.52440 1.7260675 0.0020221
 6030.54061 1.7181643 0.0020247
 6036.57228 1.7094759 0.0020448
 6042.62019 1.7026633 0.0020496
 6048.65225 1.6944132 0.0020144
 6054.70015 1.6905030 0.0020151
 6060.76352 1.6860321 0.0020176
 6066.82727 1.6814249 0.0020185
 6072.89102 1.6782362 0.0020188
 6078.95439 1.6769640 0.0020195
 6085.03399 1.6766229 0.0020191
 6091.12944 1.6763427 0.0020170
 6097.22450 1.6760865 0.0020142
 6103.31995 1.6763375 0.0020004
 6109.41501 1.6768166 0.0020085
 6115.52630 1.6773252 0.0019961
 6121.63721 1.6814780 0.0019956
 6127.76435 1.6865646 0.0019963
 6133.89111 1.6915109 0.0019986
 6140.03410 1.6938607 0.0020148
 6146.16086 1.6982882 0.0020082
 6152.31969 1.7041037 0.0020120
 6158.46230 1.7103153 0.0020151
 6164.62113 1.7152900 0.0020167
 6170.79543 1.7242477 0.0020163
 6176.97012 1.7292501 0.0020149
 6183.14441 1.7294962 0.0020015
 6189.31871 1.7308418 0.0020105
 6195.50924 1.7314919 0.0019961
 6201.71524 1.7292145 0.0019940
 6207.90538 1.7233442 0.0019911
 6214.12761 1.7177718 0.0019897
 6220.33360 1.7096347 0.0019885
 6226.55544 1.7002378 0.0019868
 6232.77767 1.6919544 0.0019843
 6239.01536 1.6836338 0.0019816
 6245.25304 1.6725681 0.0019796
 6251.50658 1.6616139 0.0019677
 6257.74465 1.6519485 0.0019772
 6264.01404 1.6422772 0.0019655
 6270.26757 1.6319312 0.0019648
 6276.53695 1.6238906 0.0019638
 6282.82218 1.6144394 0.0019630
 6289.10741 1.6065317 0.0019628
 6295.39264 1.5971442 0.0019619
 6301.69411 1.5894508 0.0019509
 6307.99518 1.5851921 0.0019610
 6314.29626 1.5812798 0.0019493
 6320.61319 1.5768092 0.0019592
 6326.93011 1.5728931 0.0019586
 6333.26288 1.5724396 0.0019483
 6339.59565 1.5694056 0.0019606
 6345.92843 1.5714000 0.0019502
 6352.27705 1.5728084 0.0019514
 6358.62567 1.5788528 0.0019517
 6364.99013 1.5796680 0.0019547
 6371.35460 1.5842766 0.0019563
 6377.73453 1.5861624 0.0019596
 6384.09899 1.5902057 0.0019516
 6390.49515 1.5956670 0.0019646
 6396.89132 1.6023052 0.0019684
 6403.28748 1.6068932 0.0019611
 6409.68364 1.6128942 0.0019654
 6416.09526 1.6189559 0.0019683
 6422.50727 1.6244855 0.0019727
 6428.93513 1.6288363 0.0019767
 6435.36298 1.6320735 0.0019796
 6441.79084 1.6329485 0.0019842
 6448.23416 1.6327569 0.0019790
 6454.69371 1.6354644 0.0019940
 6461.13741 1.6360162 0.0019992
 6467.61242 1.6374686 0.0019915
 6474.07198 1.6372555 0.0019970
 6480.54737 1.6363935 0.0020100
 6487.02277 1.6319258 0.0019958
 6493.51325 1.6268610 0.0020315
 6500.00449 1.6183093 0.0020016
 6506.51197 1.6131407 0.0020054
 6513.01868 1.6081187 0.0020144
 6519.52538 1.6055911 0.0020233
 6526.04833 1.6012619 0.0020504
 6532.57127 1.5966867 0.0020886
 6539.10967 1.5873377 0.0020992
 6545.64807 1.5770549 0.0021830
 6552.18647 1.5638222 0.0022197
 6558.74111 1.5494261 0.0021555
 6565.31120 1.5347592 0.0021268
 6571.86584 1.5188541 0.0021419
 6578.45217 1.5050943 0.0021624
 6585.02226 1.4907839 0.0021709
 6591.60859 1.4768699 0.0021895
 6598.19415 1.4598346 0.0022197
 6604.79594 1.4450078 0.0022304
 6611.39851 1.4310228 0.0022121
 6618.01576 1.4133722 0.0022327
 6624.63378 1.4009885 0.0021794
 6631.26727 1.3904918 0.0021175
 6637.88529 1.3837287 0.0020888
 6644.53424 1.3773338 0.0020477
 6651.16773 1.3699876 0.0020158
 6657.81745 1.3642820 0.0020014
 6664.48263 1.3570100 0.0020048
 6671.14781 1.3496861 0.0021202
 6677.81299 1.3420686 0.0020492
 6684.49440 1.3357697 0.0020154
 6691.17505 1.3313049 0.0020087
 6697.87192 1.3238506 0.0020144
 6704.56880 1.3168141 0.0020182
 6711.28191 1.3118947 0.0020207
 6717.99424 1.3052047 0.0020235
 6724.70735 1.3015050 0.0020149
 6731.43592 1.3019334 0.0020170
 6738.16449 1.3003470 0.0020207
 6744.90852 1.2991393 0.0020247
 6751.65333 1.2999412 0.0020288
 6758.39736 1.3018391 0.0020329
 6765.15762 1.3043016 0.0020261
 6771.91789 1.3064101 0.0020313
 6778.69439 1.3081415 0.0020458
 6785.47011 1.3103641 0.0020501
 6792.26207 1.3118124 0.0020546
 6799.05403 1.3132119 0.0020587
 6805.84599 1.3150859 0.0020635
 6812.65341 1.3185149 0.0020670
 6819.47707 1.3216985 0.0020619
 6826.28526 1.3242499 0.0020690
 6833.12438 1.3261011 0.0020782
 6839.94803 1.3306594 0.0020878
 6846.78715 1.3383667 0.0020977
 6853.64250 1.3467793 0.0021087
 6860.49785 1.3522063 0.0021199
 6867.35320 1.3595487 0.0021305
 6874.22401 1.3675644 0.0021404
 6881.09482 1.3748209 0.0021489
 6887.98186 1.3782703 0.0021552
 6894.86890 1.3818991 0.0021589
 6901.75595 1.3854742 0.0021612
 6908.65845 1.3868467 0.0021504
 6915.57719 1.3896534 0.0021470
 6922.47970 1.3925081 0.0021421
 6929.41390 1.3931211 0.0021377
 6936.33264 1.3942211 0.0021337
 6943.26684 1.3949353 0.0021427
 6950.21727 1.3953732 0.0021653
 6957.16770 1.3980997 0.0021416
 6964.13360 1.3973007 0.0021308
 6971.08403 1.3981781 0.0021519
 6978.06539 1.3996928 0.0021959
 6985.04752 1.3985802 0.0022550
 6992.02964 1.3982300 0.0023185
 6999.01100 1.4014688 0.0023797
 7006.02482 1.3982956 0.0024351
 7013.02241 1.3938452 0.0024715
 7020.03624 1.3870521 0.0024867
 7027.06552 1.3824599 0.0024815
 7034.07934 1.3774872 0.0024600
 7041.12409 1.3684815 0.0024254
 7048.15337 1.3573872 0.0023814
 7055.21435 1.3441906 0.0023357
 7062.25987 1.3297931 0.0022993
 7069.33708 1.3142577 0.0022811
 7076.39806 1.2997131 0.0022958
 7083.47450 1.2844278 0.0023237
 7090.56717 1.2733586 0.0022894
 7097.64439 1.2610654 0.0022669
 7104.75252 1.2541615 0.0022501
 7111.84520 1.2477731 0.0022347
 7118.96956 1.2425263 0.0022187
 7126.07847 1.2391320 0.0022009
 7133.20284 1.2345963 0.0021839
 7140.34267 1.2301141 0.0021661
 7147.48327 1.2278440 0.0021435
 7154.63934 1.2248251 0.0021210
 7161.77917 1.2237750 0.0020995
 7168.95146 1.2236416 0.0020791
 7176.12299 1.2212446 0.0020601
 7183.29528 1.2198644 0.0020407
 7190.48227 1.2205265 0.0020196
 7197.67003 1.2232238 0.0019995
 7204.87402 1.2251668 0.0019809
 7212.07724 1.2278147 0.0019637
 7219.28123 1.2341462 0.0019363
 7226.49991 1.2409517 0.0019214
 7233.73560 1.2449248 0.0019074
