# SOURCE  = 'Quimby et al. 2018' /                                                
# OBJECT  = 'PTF09cnd'           /                                                
# Z       =             0.258500 / wavelengths in OBSERVER FRAME                 
# NORM    =          1.83979E-16 / fluxes divided by norm                         
# CLIPPED =                    1 / galaxy emission lines removed                  
# SMOOTHED=                    1 / spectrum has been smoothed                     
# COLUMN01= 'Wavelength (Angstrom)' /                                             
# COLUMN02= 'Flux Density (erg/s/cm2/A)' /                                        
# COLUMN03= 'Flux Density Uncertainty (erg/s/cm2/A)' /                            
# END                                                                             
# 
# 
# 
# 
# 
# 
# 
# 
# 
# 
# Converted to Observer Frame using z=0.258
 4006.91886 4.7619996 0.0193321
 4010.92438 4.7620788 0.0188497
 4014.94575 4.7685370 0.0183895
 4018.95128 4.7730021 0.0179633
 4022.97265 4.7871895 0.0175394
 4026.99402 4.7531810 0.0171437
 4031.01501 4.7303505 0.0168021
 4035.05223 4.7176237 0.0164561
 4039.08945 4.7072792 0.0161165
 4043.12667 4.7054100 0.0156627
 4047.17973 4.7213531 0.0153223
 4051.21657 4.7136207 0.0150091
 4055.26963 4.7160034 0.0147355
 4059.32270 4.7336922 0.0144483
 4063.39161 4.7331495 0.0142030
 4067.44429 4.7404308 0.0139412
 4071.51321 4.7399244 0.0136909
 4075.58212 4.7252336 0.0133729
 4079.66688 4.7127090 0.0131373
 4083.75126 4.6884775 0.0128983
 4087.82017 4.6404023 0.0126829
 4091.92078 4.5820427 0.0124476
 4096.00516 4.5094409 0.0122234
 4100.10577 4.4454122 0.0120272
 4104.20638 4.3657665 0.0117179
 4108.30660 4.2968049 0.0115295
 4112.42305 4.2267733 0.0113158
 4116.52328 4.1469593 0.0111073
 4120.63973 4.0645256 0.0109215
 4124.77204 3.9855454 0.0107226
 4128.88811 3.9067655 0.0105325
 4133.02041 3.8382535 0.0102887
 4137.15233 3.7749374 0.0101147
 4141.30048 3.7148907 0.0099718
 4145.43240 3.6503408 0.0098124
 4149.58055 3.5926127 0.0096564
 4153.72831 3.5316169 0.0095262
 4157.87646 3.4749527 0.0093071
 4162.04008 3.4235086 0.0091850
 4166.20407 3.3983283 0.0090346
 4170.36769 3.3661275 0.0088915
 4174.54753 3.3470130 0.0087702
 4178.71114 3.3146305 0.0088340
 4182.89099 3.2803285 0.0089402
 4187.07045 3.2610049 0.0090718
 4191.26614 3.2286613 0.0083863
 4195.46145 3.1893387 0.0080958
 4199.65676 3.1484778 0.0079529
 4203.85245 3.0969512 0.0078350
 4208.06360 3.0556107 0.0078129
 4212.25930 3.0137067 0.0078270
 4216.47045 2.9693720 0.0078408
 4220.69745 2.9248986 0.0078840
 4224.90899 2.8837547 0.0078493
 4229.13600 2.8532224 0.0078585
 4233.36300 2.8211169 0.0078915
 4237.60623 2.7951362 0.0078752
 4241.83323 2.7819676 0.0078599
 4246.07608 2.7863379 0.0077045
 4250.33478 2.8091700 0.0076103
 4254.57802 2.8343353 0.0074596
 4258.83671 2.8728957 0.0073163
 4263.09541 2.9085743 0.0071521
 4267.35410 2.9578431 0.0069490
 4271.62904 3.0146463 0.0068034
 4275.90358 3.0769725 0.0066590
 4280.17812 3.1374030 0.0065563
 4284.45267 3.1999004 0.0064476
 4288.74306 3.2737794 0.0064458
 4293.01799 3.3521600 0.0064248
 4297.32423 3.4363472 0.0064386
 4301.61462 3.5147679 0.0065792
 4305.92086 3.5824547 0.0064121
 4310.22710 3.6500714 0.0063284
 4314.53333 3.7194471 0.0062858
 4318.85542 3.7821538 0.0063126
 4323.16166 3.8508549 0.0063401
 4327.48374 3.9177508 0.0063637
 4331.82168 3.9815817 0.0064104
 4336.14415 4.0331330 0.0064252
 4340.48208 4.0831008 0.0064680
 4344.82002 4.1332974 0.0064153
 4349.17380 4.1839294 0.0064322
 4353.52758 4.2371044 0.0063928
 4357.88136 4.2798800 0.0063805
 4362.23514 4.3198900 0.0062639
 4366.58892 4.3620286 0.0062092
 4370.95855 4.3932681 0.0061228
 4375.32818 4.4117513 0.0060579
 4379.71327 4.4282141 0.0059250
 4384.08289 4.4471316 0.0058548
 4388.46837 4.4529552 0.0057745
 4392.86969 4.4448819 0.0056926
 4397.25517 4.4257760 0.0056399
 4401.65649 4.4007316 0.0056552
 4406.05781 4.3706684 0.0056722
 4410.45914 4.3507895 0.0054884
 4414.87631 4.3186979 0.0054280
 4419.29309 4.2919216 0.0053722
 4423.71026 4.2632446 0.0053416
 4428.12743 4.2326870 0.0052696
 4432.56045 4.2016315 0.0052675
 4436.99347 4.1750288 0.0052480
 4441.42648 4.1531110 0.0052337
 4445.87496 4.1322451 0.0052290
 4450.32383 4.1097531 0.0052595
 4454.77269 4.0948391 0.0052986
 4459.22156 4.0820165 0.0052713
 4463.68588 4.0772085 0.0053076
 4468.15060 4.0573697 0.0053086
 4472.61531 4.0497789 0.0052936
 4477.07964 4.0397730 0.0052706
 4481.56020 4.0327096 0.0052751
 4486.04076 4.0280790 0.0052388
 4490.53678 4.0242872 0.0052066
 4495.01734 4.0239825 0.0052113
 4499.51374 4.0124240 0.0051876
 4504.02561 4.0000057 0.0051594
 4508.52202 3.9858644 0.0051681
 4513.03427 3.9692104 0.0051490
 4517.54614 3.9543140 0.0051203
 4522.05840 3.9334095 0.0051008
 4526.58611 3.9097223 0.0051074
 4531.11421 3.8913853 0.0050745
 4535.64232 3.8680453 0.0050484
 4540.18588 3.8478110 0.0050495
 4544.71398 3.8331797 0.0050165
 4549.25754 3.8155468 0.0049924
 4553.81734 3.8009174 0.0049940
 4558.36090 3.7777271 0.0049387
 4562.92070 3.7563188 0.0049434
 4567.49596 3.7317538 0.0049549
 4572.05575 3.7118900 0.0049057
 4576.63101 3.6987166 0.0049153
 4581.20627 3.6889050 0.0049254
 4585.78191 3.6775978 0.0048725
 4590.37302 3.6692245 0.0048816
 4594.96451 3.6656978 0.0048910
 4599.55562 3.6629672 0.0048349
 4604.16257 3.6571200 0.0048414
 4608.76991 3.6537578 0.0047822
 4613.37686 3.6470823 0.0047843
 4617.98381 3.6411290 0.0047868
 4622.60700 3.6314149 0.0047277
 4627.22980 3.6158533 0.0047300
 4631.85260 3.6011353 0.0047297
 4636.49163 3.5793254 0.0046676
 4641.13028 3.5585015 0.0046694
 4645.76893 3.5342245 0.0046671
 4650.40796 3.5033810 0.0046259
 4655.06246 3.4675610 0.0045922
 4659.71695 3.4346035 0.0045463
 4664.37144 3.3986385 0.0045369
 4669.04179 3.3725126 0.0045022
 4673.71252 3.3479762 0.0044639
 4678.38286 3.3198912 0.0044675
 4683.06905 3.3011732 0.0044139
 4687.73939 3.2926066 0.0044244
 4692.42558 3.2880080 0.0044377
 4697.12800 3.2880337 0.0044202
 4701.83004 3.2918320 0.0044034
 4706.53208 3.3008585 0.0043757
 4711.23411 3.3075750 0.0043531
 4715.95200 3.3231809 0.0043202
 4720.65403 3.3336046 0.0042607
 4725.38776 3.3443651 0.0042632
 4730.10565 3.3522756 0.0042095
 4734.83938 3.3474796 0.0042217
 4739.57311 3.3436406 0.0041760
 4744.30684 3.3348796 0.0041591
 4749.05642 3.3326292 0.0041728
 4753.80600 3.3231511 0.0041272
 4758.55558 3.3107285 0.0041370
 4763.32101 3.3091326 0.0040871
 4768.08643 3.3012788 0.0040676
 4772.85186 3.2977901 0.0040515
 4777.61729 3.2954938 0.0040298
 4782.39856 3.2866285 0.0040120
 4787.17983 3.2792628 0.0039988
 4791.97695 3.2742448 0.0039848
 4796.75823 3.2762713 0.0039724
 4801.55535 3.2793849 0.0039574
 4806.36832 3.2776327 0.0039177
 4811.16505 3.2818432 0.0039312
 4815.97802 3.2825677 0.0039179
 4820.79099 3.2882750 0.0038750
 4825.61981 3.2843485 0.0038892
 4830.44862 3.2907071 0.0038504
 4835.27705 3.2978010 0.0038339
 4840.10587 3.3110778 0.0038468
 4844.95053 3.3228953 0.0038065
 4849.79519 3.3323092 0.0037918
 4854.63986 3.3520989 0.0037784
 4859.49998 3.3676729 0.0037622
 4864.36049 3.3871641 0.0037475
 4869.22100 3.3890791 0.0037368
 4874.09697 3.3896127 0.0037204
 4878.97333 3.3893735 0.0037057
 4883.84969 3.3888328 0.0036946
 4888.72566 3.3829441 0.0036814
 4893.61787 3.3742537 0.0036456
 4898.51007 3.3630528 0.0037455
 4903.41774 3.3582680 0.0037001
 4908.30995 3.3371372 0.0036151
 4913.21800 3.3220189 0.0036679
 4918.14151 3.3010180 0.0038124
 4923.06541 3.2825387 0.0036835
 4927.97308 3.2664447 0.0037035
 4932.91283 3.2549860 0.0037868
 4937.83634 3.2400737 0.0038365
 4942.77609 3.2298248 0.0039012
 4947.71545 3.2172840 0.0039792
 4952.67104 3.1892879 0.0040091
 4957.62625 3.1587801 0.0039747
 4962.58185 3.1253972 0.0038442
 4967.53706 3.0975318 0.0037350
 4972.50850 3.0628850 0.0036133
 4977.47956 3.0295439 0.0034987
 4982.46685 3.0003424 0.0033849
 4987.43790 2.9681261 0.0033504
 4992.42480 2.9305148 0.0034095
 4997.42794 2.9022057 0.0032685
 5002.41484 2.8735559 0.0032130
 5007.41798 2.8511312 0.0032806
 5012.43658 2.8353355 0.0032992
 5017.43933 2.8236058 0.0032056
 5022.45832 2.8219182 0.0032079
 5027.49276 2.8227715 0.0032324
 5032.51136 2.8285668 0.0032113
 5037.54580 2.8296642 0.0032093
 5042.58064 2.8234279 0.0032072
 5047.63093 2.8225505 0.0032053
 5052.68122 2.8202510 0.0031999
 5057.73152 2.8269610 0.0031910
 5062.78219 2.8278482 0.0031821
 5067.84834 2.8258045 0.0031529
 5072.91448 2.8251717 0.0031644
 5077.99646 2.8206248 0.0031542
 5083.06260 2.8112879 0.0031468
 5088.14498 2.8029213 0.0031200
 5093.24281 2.7945814 0.0031358
 5098.32480 2.7859273 0.0031280
 5103.43848 2.7794120 0.0030993
 5108.53632 2.7716362 0.0030891
 5113.65000 2.7622068 0.0030780
 5118.76368 2.7595079 0.0030674
 5123.87737 2.7555985 0.0030788
 5129.00690 2.7526836 0.0030493
 5134.13642 2.7457385 0.0030406
 5139.26595 2.7481916 0.0030314
 5144.41133 2.7536087 0.0030231
 5149.55671 2.7587438 0.0029972
 5154.70209 2.7685578 0.0030126
 5159.84746 2.7765510 0.0030108
 5165.00869 2.7902956 0.0030094
 5170.18576 2.8026383 0.0029898
 5175.34699 2.8192246 0.0029905
 5180.52406 2.8324392 0.0029924
 5185.70113 2.8438215 0.0030121
 5190.89405 2.8550594 0.0030109
 5196.08697 2.8635106 0.0029882
 5201.27989 2.8750951 0.0030015
 5206.48865 2.8788340 0.0029781
 5211.68119 2.8862774 0.0029667
 5216.90580 2.8916619 0.0029641
 5222.11457 2.8908396 0.0029837
 5227.33918 2.8919878 0.0029675
 5232.56380 2.8894110 0.0029689
 5237.80387 2.8816197 0.0029694
 5243.04433 2.8767455 0.0029660
 5248.28479 2.8641365 0.0029589
 5253.52526 2.8492305 0.0029290
 5258.78118 2.8389931 0.0029129
 5264.03749 2.8284438 0.0028929
 5269.30964 2.8175061 0.0028732
 5274.58180 2.8105266 0.0028723
 5279.85357 2.7979274 0.0028549
 5285.12573 2.7909498 0.0028400
 5290.41373 2.7856133 0.0028124
 5295.70135 2.7826164 0.0028044
 5301.00520 2.7829175 0.0028033
 5306.30866 2.7837367 0.0027888
 5311.61251 2.7884195 0.0027818
 5316.91637 2.7928283 0.0027752
 5322.23568 2.7943733 0.0027692
 5327.55538 2.8005161 0.0027460
 5332.89054 2.8032975 0.0027407
 5338.22608 2.8038270 0.0027362
 5343.56124 2.8079636 0.0027319
 5348.91263 2.8023517 0.0027462
 5354.26364 2.7996767 0.0027414
 5359.61504 2.7993004 0.0027342
 5364.96604 2.7933052 0.0027282
 5370.33328 2.7906446 0.0027211
 5375.70014 2.7859278 0.0027803
 5381.08284 2.7749085 0.0027219
 5386.46593 2.7659371 0.0026853
 5391.84863 2.7571476 0.0026871
 5397.24756 2.7502897 0.0027089
 5402.63027 2.7380610 0.0027413
 5408.04466 2.7276361 0.0027761
 5413.44360 2.7144637 0.0028097
 5418.85799 2.6987998 0.0028366
 5424.28824 2.6789079 0.0028514
 5429.70302 2.6565270 0.0028484
 5435.13326 2.6361983 0.0028275
 5440.56351 2.6095233 0.0027939
 5446.00960 2.5845201 0.0027524
 5451.45608 2.5614684 0.0027082
 5456.91801 2.5446730 0.0026553
 5462.36411 2.5277946 0.0026188
 5467.82604 2.5149989 0.0025997
 5473.30383 2.5038860 0.0026102
 5478.76616 2.4917240 0.0026883
 5484.24394 2.4930787 0.0026127
 5489.73757 2.4928820 0.0025948
 5495.23121 2.4989171 0.0025783
 5500.72484 2.5066168 0.0025786
 5506.21847 2.5156143 0.0025794
 5511.72796 2.5260670 0.0025799
 5517.23744 2.5328109 0.0025826
 5522.76315 2.5394855 0.0025860
 5528.28848 2.5427504 0.0025906
 5533.81381 2.5410905 0.0025960
 5539.33914 2.5416434 0.0025992
 5544.88031 2.5344155 0.0026012
 5550.42149 2.5284431 0.0026019
 5555.97851 2.5222664 0.0026013
 5561.53553 2.5143156 0.0025992
 5567.09255 2.5026028 0.0025950
 5572.66504 2.4951310 0.0025715
 5578.23791 2.4851470 0.0025639
 5583.81078 2.4732242 0.0025549
 5589.39950 2.4609993 0.0025459
 5594.98821 2.4396267 0.0025373
 5600.59278 2.4194741 0.0025277
 5606.18150 2.3962803 0.0025179
 5611.78606 2.3707078 0.0025222
 5617.40609 2.3384731 0.0025118
 5623.02650 2.3034594 0.0024850
 5628.64691 2.2683084 0.0024748
 5634.26733 2.2333679 0.0024658
 5639.90359 2.1983666 0.0024574
 5645.53946 2.1644011 0.0024504
 5651.19157 2.1345036 0.0024439
 5656.84367 2.1072969 0.0024387
 5662.51124 2.0852649 0.0024199
 5668.16335 2.0682666 0.0024178
 5673.83130 2.0577562 0.0024164
 5679.51472 2.0557559 0.0024156
 5685.18267 2.0516255 0.0024159
 5690.86648 2.0492878 0.0024294
 5696.56574 2.0472326 0.0024285
 5702.26539 2.0497658 0.0024119
 5707.96504 2.0504479 0.0024096
 5713.68015 2.0490735 0.0024069
 5719.37980 2.0475383 0.0024038
 5725.11075 2.0449734 0.0024008
 5730.82625 2.0438390 0.0023823
 5736.55721 2.0441504 0.0023796
 5742.30440 2.0455647 0.0023920
 5748.03536 2.0459316 0.0023899
 5753.78255 2.0462444 0.0023888
 5759.54520 2.0502133 0.0023737
 5765.30824 2.0560534 0.0023737
 5771.07089 2.0652008 0.0023738
 5776.84978 2.0760279 0.0023742
 5782.61243 2.0898144 0.0023758
 5788.40678 2.1020670 0.0023771
 5794.18567 2.1160769 0.0023781
 5799.98001 2.1274962 0.0023798
 5805.79021 2.1410213 0.0023677
 5811.58494 2.1542289 0.0023679
 5817.41098 2.1613765 0.0023827
 5823.22118 2.1690879 0.0023824
 5829.04761 2.1735518 0.0023674
 5834.87365 2.1754961 0.0023663
 5840.71554 2.1773570 0.0023650
 5846.54158 2.1773295 0.0023771
 5852.39970 2.1746106 0.0023609
 5858.24159 2.1690249 0.0023587
 5864.11518 2.1640363 0.0023574
 5869.97291 2.1603725 0.0023421
 5875.84650 2.1573553 0.0023546
 5881.72047 2.1509006 0.0023536
 5887.59405 2.1443677 0.0023527
 5893.48348 2.1396861 0.0023369
 5899.38876 2.1338086 0.0023489
 5905.27820 2.1291010 0.0023472
 5911.18347 2.1220901 0.0023318
 5917.10460 2.1138270 0.0023298
 5923.00988 2.1038165 0.0023266
 5928.94685 2.0930705 0.0023227
 5934.86798 2.0824292 0.0023185
 5940.80495 2.0680797 0.0023142
 5946.74193 2.0509489 0.0023100
 5952.69475 2.0373609 0.0023056
 5958.64757 2.0232596 0.0023006
 5964.60039 2.0068138 0.0022818
 5970.56906 1.9887640 0.0022892
 5976.53773 1.9718223 0.0022846
 5982.52224 1.9534333 0.0022672
 5988.49091 1.9386855 0.0022920
 5994.49128 1.9192998 0.0022940
 6000.47579 1.9042602 0.0022602
 6006.47577 1.8893528 0.0022579
 6012.49198 1.8733668 0.0022724
 6018.50819 1.8607062 0.0022966
 6024.52440 1.8500375 0.0023118
 6030.54061 1.8413351 0.0023560
 6036.57228 1.8347549 0.0023808
 6042.62019 1.8374448 0.0023824
 6048.65225 1.8380897 0.0024074
 6054.70015 1.8428204 0.0023891
 6060.76352 1.8491565 0.0023762
 6066.82727 1.8645581 0.0023668
 6072.89102 1.8785187 0.0023294
 6078.95439 1.8927796 0.0023033
 6085.03399 1.9074563 0.0022792
 6091.12944 1.9217232 0.0022636
 6097.22450 1.9364591 0.0022513
 6103.31995 1.9512852 0.0023018
 6109.41501 1.9613085 0.0022973
 6115.52630 1.9679015 0.0022815
 6121.63721 1.9698530 0.0023055
 6127.76435 1.9689107 0.0022655
 6133.89111 1.9648415 0.0023467
 6140.03410 1.9546757 0.0022859
 6146.16086 1.9418433 0.0022943
 6152.31969 1.9229039 0.0023295
 6158.46230 1.9018666 0.0023791
 6164.62113 1.8763368 0.0024323
 6170.79543 1.8489823 0.0024796
 6176.97012 1.8162600 0.0025117
 6183.14441 1.7911373 0.0025473
 6189.31871 1.7644318 0.0026258
 6195.50924 1.7345226 0.0025260
 6201.71524 1.7081110 0.0024159
 6207.90538 1.6889507 0.0023692
 6214.12761 1.6706457 0.0023469
 6220.33360 1.6545799 0.0023340
 6226.55544 1.6434462 0.0023337
 6232.77767 1.6359311 0.0023734
 6239.01536 1.6298552 0.0024380
 6245.25304 1.6218615 0.0023633
 6251.50658 1.6214876 0.0024582
 6257.74465 1.6217699 0.0023460
 6264.01404 1.6212765 0.0022987
 6270.26757 1.6241512 0.0022624
 6276.53695 1.6275245 0.0022209
 6282.82218 1.6331202 0.0021842
 6289.10741 1.6369230 0.0021564
 6295.39264 1.6425840 0.0021419
 6301.69411 1.6513658 0.0021712
 6307.99518 1.6586525 0.0022364
 6314.29626 1.6647735 0.0021774
 6320.61319 1.6730593 0.0021796
 6326.93011 1.6802574 0.0021667
 6333.26288 1.6881175 0.0021598
 6339.59565 1.6955413 0.0021531
 6345.92843 1.7047665 0.0021838
 6352.27705 1.7130975 0.0021975
 6358.62567 1.7217834 0.0022289
 6364.99013 1.7280960 0.0022576
 6371.35460 1.7366298 0.0022849
 6377.73453 1.7465867 0.0022918
 6384.09899 1.7555959 0.0023142
 6390.49515 1.7662454 0.0023116
 6396.89132 1.7733752 0.0022834
 6403.28748 1.7794299 0.0022780
 6409.68364 1.7857229 0.0022400
 6416.09526 1.7919693 0.0022148
 6422.50727 1.7948405 0.0021938
 6428.93513 1.7950402 0.0021815
 6435.36298 1.7929147 0.0021884
 6441.79084 1.7911600 0.0022058
 6448.23416 1.7851442 0.0022090
 6454.69371 1.7793144 0.0021846
 6461.13741 1.7719100 0.0021728
 6467.61242 1.7634318 0.0021834
 6474.07198 1.7507974 0.0021705
 6480.54737 1.7403517 0.0021677
 6487.02277 1.7214274 0.0021621
 6493.51325 1.7006253 0.0021590
 6500.00449 1.6801703 0.0021569
 6506.51197 1.6550168 0.0021562
 6513.01868 1.6260974 0.0021439
 6519.52538 1.5980428 0.0021424
 6526.04833 1.5668015 0.0021525
 6532.57127 1.5364147 0.0021365
 6539.10967 1.5024410 0.0021302
 6545.64807 1.4657639 0.0021235
 6552.18647 1.4269714 0.0021171
 6558.74111 1.3909388 0.0021046
 6565.31120 1.3554783 0.0020928
 6571.86584 1.3217123 0.0020838
 6578.45217 1.2927746 0.0020641
 6585.02226 1.2677085 0.0020563
 6591.60859 1.2465720 0.0020631
 6598.19415 1.2276169 0.0020510
 6604.79594 1.2167485 0.0020500
 6611.39851 1.2059935 0.0020471
 6618.01576 1.2031001 0.0020475
 6624.63378 1.2027160 0.0020389
 6631.26727 1.2031438 0.0020439
 6637.88529 1.2062918 0.0020592
 6644.53424 1.2130342 0.0020647
 6651.16773 1.2159494 0.0020608
 6657.81745 1.2214602 0.0020669
 6664.48263 1.2259452 0.0020728
 6671.14781 1.2269568 0.0020802
 6677.81299 1.2282836 0.0020860
 6684.49440 1.2315108 0.0020787
 6691.17505 1.2332501 0.0020843
 6697.87192 1.2345922 0.0021016
 6704.56880 1.2402201 0.0021062
 6711.28191 1.2471946 0.0021112
 6717.99424 1.2572057 0.0021171
 6724.70735 1.2662355 0.0021125
 6731.43592 1.2820548 0.0021186
 6738.16449 1.2964340 0.0021259
 6744.90852 1.3127278 0.0021328
 6751.65333 1.3244013 0.0021397
 6758.39736 1.3348937 0.0021459
 6765.15762 1.3431423 0.0021405
 6771.91789 1.3517302 0.0021459
 6778.69439 1.3596450 0.0021510
 6785.47011 1.3656940 0.0021559
 6792.26207 1.3744774 0.0022166
 6799.05403 1.3812542 0.0021759
 6805.84599 1.3892074 0.0021721
 6812.65341 1.3981659 0.0021886
 6819.47707 1.4063627 0.0022174
 6826.28526 1.4163275 0.0022385
 6833.12438 1.4295540 0.0022751
 6839.94803 1.4407563 0.0023108
 6846.78715 1.4505348 0.0023421
 6853.64250 1.4600704 0.0023657
 6860.49785 1.4716367 0.0023760
 6867.35320 1.4771444 0.0023775
 6874.22401 1.4789635 0.0023706
 6881.09482 1.4766285 0.0023567
 6887.98186 1.4734251 0.0023260
 6894.86890 1.4689357 0.0023089
 6901.75595 1.4636376 0.0022961
 6908.65845 1.4577236 0.0022916
 6915.57719 1.4465624 0.0023049
 6922.47970 1.4392048 0.0023563
 6929.41390 1.4288656 0.0022891
 6936.33264 1.4181073 0.0022830
 6943.26684 1.4078875 0.0022967
 6950.21727 1.3979050 0.0022941
 6957.16770 1.3880922 0.0022643
 6964.13360 1.3720908 0.0022574
 6971.08403 1.3553883 0.0022678
 6978.06539 1.3358301 0.0022918
 6985.04752 1.3169601 0.0023241
 6992.02964 1.2919770 0.0023615
 6999.01100 1.2645898 0.0024011
 7006.02482 1.2340266 0.0024369
 7013.02241 1.2016834 0.0024623
 7020.03624 1.1691049 0.0024743
 7027.06552 1.1360918 0.0024739
 7034.07934 1.1046389 0.0024737
 7041.12409 1.0742809 0.0024504
 7048.15337 1.0461172 0.0024208
 7055.21435 1.0251009 0.0023900
 7062.25987 1.0074002 0.0023681
 7069.33708 0.9948207 0.0023494
 7076.39806 0.9877225 0.0023598
 7083.47450 0.9844874 0.0023537
 7090.56717 0.9811226 0.0023279
 7097.64439 0.9814287 0.0023203
 7104.75252 0.9862737 0.0023126
 7111.84520 0.9905800 0.0023021
 7118.96956 1.0005546 0.0022885
 7126.07847 1.0105311 0.0022736
 7133.20284 1.0254129 0.0022577
 7140.34267 1.0397654 0.0022401
 7147.48327 1.0518377 0.0022217
 7154.63934 1.0711793 0.0021980
 7161.77917 1.0905519 0.0021739
 7168.95146 1.1111525 0.0021519
 7176.12299 1.1331949 0.0021316
 7183.29528 1.1551383 0.0021147
 7190.48227 1.1786604 0.0020888
 7197.67003 1.1987149 0.0020783
 7204.87402 1.2203015 0.0020620
 7212.07724 1.2408648 0.0020496
 7219.28123 1.2615846 0.0020380
 7226.49991 1.2805370 0.0020272
 7233.73560 1.2963256 0.0020175
 7240.97051 1.3128055 0.0020082
 7248.20620 1.3289815 0.0019982
 7255.45657 1.3440270 0.0019879
 7262.70772 1.3563432 0.0019783
