# SOURCE  = 'Quimby et al. 2018' /                                                
# OBJECT  = '2011ke  '           /                                                
# Z       = 0.142900 / wavelengths in OBSERVER FRAME (from rest frame x (1+z))
# NORM    =             0.208486 / fluxes divided by norm                         
# CLIPPED =                    1 / galaxy emission lines removed                  
# SMOOTHED=                    1 / spectrum has been smoothed                     
# COLUMN01= 'Wavelength (Angstrom)' /                                             
# COLUMN02= 'Flux Density (erg/s/cm2/A)' /                                        
# COLUMN03= 'Flux Density Uncertainty (erg/s/cm2/A)' /                            
# END                                                                             
# 
# 
# 
# 
# 
# 
# 
# 
# 
# 
 3945.7392  2.0103073  0.0786212
 3949.6840  2.0155571  0.0625398
 3953.6419  2.0096803  0.0572706
 3957.5867  2.0101974  0.0496816
 3961.5445  2.0141890  0.0418737
 3965.5155  2.0160429  0.0394655
 3969.4731  2.0234327  0.0346643
 3973.4440  2.0336590  0.0331861
 3977.4150  2.0294199  0.0303086
 3981.3990  2.0309260  0.0293617
 3985.3831  2.0424347  0.0276457
 3989.3668  2.0624886  0.0269915
 3993.3508  2.0678775  0.0259433
 3997.3479  2.0915763  0.0250715
 4001.3450  2.0985804  0.0246289
 4005.3422  2.1132047  0.0240500
 4009.3520  2.1236179  0.0236823
 4013.3622  2.1268845  0.0232911
 4017.3724  2.1297331  0.0229714
 4021.3953  2.1357608  0.0231411
 4025.4186  2.1558447  0.0230689
 4029.4419  2.1710651  0.0229986
 4033.4648  2.1687489  0.0226260
 4037.5011  2.1657445  0.0225489
 4041.5375  2.1670544  0.0227110
 4045.5866  2.1787078  0.0226366
 4049.6229  2.1809945  0.0225642
 4053.6723  2.1794927  0.0224938
 4057.7345  2.1765859  0.0226459
 4061.7970  2.1726949  0.0225666
 4065.8461  2.1696851  0.0224896
 4069.9216  2.1588364  0.0221270
 4073.9838  2.1548445  0.0222884
 4078.0593  2.1492920  0.0222054
 4082.1346  2.1421261  0.0221247
 4086.2232  2.1357715  0.0220464
 4090.3115  2.1249356  0.0222136
 4094.4002  2.1179378  0.0221391
 4098.4885  2.1219661  0.0217615
 4102.5902  2.1101699  0.0216799
 4106.6916  2.0966473  0.0218393
 4110.8064  2.0842113  0.0217617
 4114.9078  2.0780685  0.0216869
 4119.0222  2.0657630  0.0218451
 4123.1501  2.0686610  0.0217604
 4127.2646  2.0625055  0.0216788
 4131.3924  2.0515611  0.0213091
 4135.5330  2.0381801  0.0214733
 4139.6606  2.0313663  0.0213859
 4143.8015  2.0264249  0.0213016
 4147.9552  2.0160632  0.0212204
 4152.0958  1.9926597  0.0213883
 4156.2495  1.9869314  0.0213125
 4160.4035  1.9878060  0.0209263
 4164.5703  1.9807814  0.0210851
 4168.7371  1.9659350  0.0210038
 4172.9038  1.9533082  0.0209260
 4177.0709  1.9486583  0.0208516
 4181.2508  1.9542444  0.0210022
 4185.4306  1.9469379  0.0209178
 4189.6235  1.9336894  0.0205426
 4193.8034  1.9319471  0.0207100
 4197.9966  1.9229857  0.0206199
 4202.2026  1.9077070  0.0205339
 4206.3955  1.8949980  0.0204518
 4210.6146  1.8793520  0.0206244
 4214.8206  1.8789093  0.0202399
 4219.0396  1.8876112  0.0201528
 4223.2587  1.8893701  0.0203166
 4227.4778  1.8919947  0.0202365
 4231.7099  1.8860542  0.0201610
 4235.9420  1.8800405  0.0203198
 4240.1742  1.8799495  0.0202331
 4244.4194  1.8697490  0.0198528
 4248.6646  1.8682898  0.0197770
 4252.9098  1.8562397  0.0199350
 4257.1550  1.8539751  0.0198483
 4261.4133  1.8588243  0.0197666
 4265.6847  1.8702297  0.0199477
 4269.9430  1.8736898  0.0195541
 4274.2144  1.8678086  0.0194678
 4278.4857  1.8735962  0.0196403
 4282.7702  1.8759044  0.0195633
 4287.0546  1.8798620  0.0194917
 4291.3391  1.8740990  0.0196478
 4295.6366  1.8782939  0.0192607
 4299.9207  1.8844444  0.0191849
 4304.2313  1.8818099  0.0193543
 4308.5288  1.8744744  0.0192667
 4312.8394  1.8744912  0.0191854
 4317.1500  1.8634510  0.0190692
 4321.4733  1.8541471  0.0189774
 4325.7970  1.8506687  0.0188920
 4330.1207  1.8593286  0.0190767
 4334.4443  1.8661699  0.0190030
 4338.7807  1.8667797  0.0189362
 4343.1175  1.8626947  0.0187844
 4347.4673  1.8593462  0.0187069
 4351.8171  1.8547417  0.0186365
 4356.1666  1.8504583  0.0188080
 4360.5164  1.8490962  0.0187251
 4364.8793  1.8589545  0.0183462
 4369.2419  1.8635373  0.0185285
 4373.6179  1.8685989  0.0184422
 4377.9935  1.8648436  0.0186415
 4382.3695  1.8613352  0.0185698
 4386.7454  1.8633430  0.0181679
 4391.1342  1.8617662  0.0183605
 4395.5232  1.8563976  0.0182858
 4399.9250  1.8543410  0.0182196
 4404.3271  1.8528507  0.0184040
 4408.7289  1.8552197  0.0180110
 4413.1441  1.8564432  0.0179424
 4417.5590  1.8567218  0.0181360
 4421.9742  1.8477597  0.0180539
 4426.3890  1.8414546  0.0182767
 4430.8173  1.8489321  0.0178766
 4435.2453  1.8533144  0.0177924
 4439.6863  1.8628290  0.0180095
 4444.1276  1.8733464  0.0179434
 4448.5686  1.8810328  0.0178888
 4453.0231  1.8874983  0.0177517
 4457.4641  1.8931879  0.0176846
 4461.9312  1.8990668  0.0179061
 4466.3857  1.8994730  0.0178239
 4470.8528  1.8944629  0.0177537
 4475.3331  1.8896973  0.0176636
 4479.8006  1.8953065  0.0175803
 4484.2808  1.8936186  0.0178243
 4488.7611  1.8889267  0.0177644
 4493.2544  1.8830158  0.0173462
 4497.7480  1.8786343  0.0175864
 4502.2544  1.8862317  0.0175262
 4506.7477  1.8933342  0.0177706
 4511.2541  1.8978746  0.0176938
 4515.7736  1.9087785  0.0172989
 4520.2803  1.9247856  0.0175481
 4524.7998  1.9329436  0.0174716
 4529.3323  1.9514380  0.0170826
 4533.8649  1.9712284  0.0173356
 4538.3974  1.9830134  0.0172602
 4542.9300  1.9833304  0.0168775
 4547.4756  1.9836186  0.0171335
 4552.0212  1.9860384  0.0170597
 4556.5802  1.9860348  0.0166838
 4561.1389  1.9829953  0.0166418
 4565.6976  1.9794343  0.0168704
 4570.2563  1.9733275  0.0165018
 4574.8281  1.9648668  0.0164625
 4579.3999  1.9553725  0.0166926
 4583.9847  1.9431263  0.0163317
 4588.5696  1.9473675  0.0162957
 4593.1544  1.9694889  0.0162207
 4597.7520  1.9717880  0.0161739
 4602.3499  1.9717875  0.0161418
 4606.9479  1.9818583  0.0160715
 4611.5589  1.9853382  0.0160289
 4616.1699  1.9931619  0.0160012
 4620.7939  1.9941274  0.0159347
 4625.4049  1.9992164  0.0158969
 4630.0290  1.9984268  0.0158741
 4634.6658  1.9975905  0.0158106
 4639.3030  1.9990426  0.0157780
 4643.9401  1.9950767  0.0157606
 4648.5773  1.9843539  0.0156992
 4653.2275  1.9761488  0.0156721
 4657.8774  1.9716986  0.0153456
 4662.5407  1.9659470  0.0156001
 4667.2040  1.9594857  0.0155790
 4671.8800  1.9524319  0.0152530
 4676.5433  1.9669307  0.0155132
 4681.2197  1.9760846  0.0154986
 4685.9088  1.9725627  0.0154621
 4690.5852  1.9734428  0.0154384
 4695.2746  1.9708223  0.0151340
 4699.9768  1.9551169  0.0153922
 4704.6794  1.9428059  0.0153755
 4709.3819  1.9248924  0.0150686
 4714.0972  1.9203460  0.0153337
 4718.7997  1.9147255  0.0150469
 4723.5280  1.9113744  0.0150139
 4728.2436  1.9018141  0.0152865
 4732.9720  1.8930074  0.0149953
 4737.7137  1.8892570  0.0149699
 4742.4421  1.8867103  0.0152508
 4747.1838  1.8748748  0.0149540
 4751.9383  1.8714665  0.0152275
 4756.6931  1.8742491  0.0149484
 4761.4476  1.8792144  0.0149231
 4766.2155  1.8988305  0.0152055
 4770.9700  1.8981853  0.0149191
 4775.7507  1.8953724  0.0149025
 4780.5186  1.8856468  0.0149242
 4785.2992  1.8748205  0.0149000
 4790.0930  1.8637786  0.0149380
 4794.8739  1.8540336  0.0149058
 4799.6807  1.8500942  0.0148910
 4804.4745  1.8495817  0.0149195
 4809.2816  1.8415177  0.0148974
 4814.0884  1.8357626  0.0149408
 4818.9083  1.8211662  0.0149111
 4823.7151  1.8087058  0.0148992
 4828.5483  1.7959754  0.0149316
 4833.3682  1.7802848  0.0149126
 4838.2142  1.7667254  0.0146720
 4843.0472  1.7625552  0.0149323
 4847.8932  1.7554667  0.0146852
 4852.7396  1.7519644  0.0149579
 4857.5856  1.7441305  0.0149433
 4862.4447  1.7396846  0.0147079
 4867.3169  1.7332006  0.0149674
 4872.1760  1.7205145  0.0147258
 4877.0482  1.7178386  0.0149964
 4881.9334  1.7145059  0.0147483
 4886.8056  1.7169371  0.0150298
 4891.7039  1.7220665  0.0150144
 4896.5892  1.7341819  0.0147791
 4901.4875  1.7352071  0.0150454
 4906.3858  1.7396193  0.0148041
 4911.2972  1.7380627  0.0150799
 4916.2086  1.7314568  0.0148323
 4921.1200  1.7316282  0.0148439
 4926.0445  1.7380314  0.0148634
 4930.9690  1.7432688  0.0148700
 4935.9065  1.7414877  0.0151380
 4940.8310  1.7436638  0.0148987
 4945.7816  1.7435474  0.0151747
 4950.7192  1.7321264  0.0149295
 4955.6695  1.7290484  0.0149453
 4960.6332  1.7236814  0.0149621
 4965.5969  1.7136437  0.0149734
 4970.5606  1.7057301  0.0149961
 4975.5243  1.7095184  0.0150030
 4980.5007  1.7278956  0.0150311
 4985.4906  1.7366688  0.0150338
 4990.4674  1.7446644  0.0147903
 4995.4572  1.7449673  0.0150652
 5000.4598  1.7551329  0.0150837
 5005.4628  1.7517748  0.0150971
 5010.4657  1.7619673  0.0151118
 5015.4683  1.7816381  0.0151290
 5020.4843  1.8009551  0.0151401
 5025.5134  1.8177689  0.0151606
 5030.5421  1.8227870  0.0151682
 5035.5712  1.8296821  0.0149136
 5040.6000  1.8276905  0.0151959
 5045.6421  1.8237627  0.0149432
 5050.6839  1.8289984  0.0152227
 5055.7392  1.8389537  0.0149716
 5060.7941  1.8342069  0.0152485
 5065.8624  1.8375891  0.0149985
 5070.9173  1.8395448  0.0152729
 5075.9987  1.8394579  0.0150236
 5081.0666  1.8356565  0.0152955
 5086.1480  1.8300008  0.0150466
 5091.2422  1.8280877  0.0153161
 5096.3366  1.8351790  0.0150673
 5101.4307  1.8300523  0.0150561
 5106.5249  1.8289738  0.0150855
 5111.6324  1.8207628  0.0150723
 5116.7527  1.8205037  0.0151008
 5121.8599  1.8166574  0.0150857
 5126.9936  1.8051178  0.0151130
 5132.1138  1.7880580  0.0150964
 5137.2472  1.7632922  0.0151220
 5142.3809  1.7527106  0.0151038
 5147.5273  1.7441845  0.0151274
 5152.6737  1.7306356  0.0151080
 5157.8332  1.7107826  0.0151291
 5162.9800  1.6991132  0.0151087
 5168.1526  1.6789751  0.0151268
 5173.3121  1.6687039  0.0151057
 5178.4847  1.6631554  0.0151204
 5183.6703  1.6587954  0.0150987
 5188.8560  1.6561592  0.0151098
 5194.0416  1.6519183  0.0148553
 5199.2407  1.6400214  0.0150947
 5204.4394  1.6251270  0.0148396
 5209.6381  1.6179591  0.0150749
 5214.8500  1.6113588  0.0148196
 5220.0618  1.6155622  0.0150504
 5225.2866  1.6199118  0.0147951
 5230.5115  1.6076587  0.0150211
 5235.7364  1.6075016  0.0147660
 5240.9744  1.6152730  0.0149868
 5246.2123  1.6114575  0.0147323
 5251.4634  1.6125629  0.0149476
 5256.7144  1.6112474  0.0146940
 5261.9782  1.6192864  0.0146684
 5267.2292  1.6276157  0.0146512
 5272.5064  1.6334735  0.0146198
 5277.7836  1.6406622  0.0146042
 5283.0607  1.6549555  0.0145668
 5288.3379  1.6575421  0.0145531
 5293.6279  1.6560719  0.0145097
 5298.9181  1.6501267  0.0147169
 5304.2215  1.6479440  0.0144488
 5309.5248  1.6375500  0.0144141
 5314.8281  1.6364111  0.0143844
 5320.1442  1.6453382  0.0143434
 5325.4737  1.6459813  0.0143168
 5330.7901  1.6378564  0.0142694
 5336.1323  1.6311667  0.0142463
 5341.4618  1.6196705  0.0141926
 5346.8044  1.6109335  0.0139271
 5352.1469  1.6079431  0.0141131
 5357.5019  1.6087831  0.0138434
 5362.8575  1.6086793  0.0140314
 5368.2266  1.6011857  0.0139785
 5373.5950  1.5909778  0.0139477
 5378.9633  1.5909888  0.0138883
 5384.3451  1.5915017  0.0136233
 5389.7269  1.5828797  0.0137965
 5395.1214  1.5673662  0.0135273
 5400.5160  1.5577217  0.0137035
 5405.9105  1.5548114  0.0134300
 5411.3185  1.5363928  0.0133829
 5416.7391  1.5357562  0.0135433
 5422.1471  1.5246018  0.0132782
 5427.5812  1.5168122  0.0134424
 5433.0018  1.5132976  0.0131731
 5438.4359  1.4994853  0.0131243
 5443.8694  1.4888927  0.0130677
 5449.3162  1.4827983  0.0130125
 5454.7637  1.4758729  0.0131665
 5460.2233  1.4659175  0.0129009
 5465.6835  1.4561566  0.0128499
 5471.1565  1.4475954  0.0127900
 5476.6167  1.4444793  0.0127326
 5482.1025  1.4336905  0.0126801
 5487.5754  1.4318087  0.0126163
 5493.0618  1.4134338  0.0125627
 5498.5610  1.4042650  0.0125016
 5504.0601  1.3998502  0.0124415
 5509.5592  1.3949816  0.0123886
 5515.0718  1.3858885  0.0123224
 5520.5837  1.3843180  0.0122658
 5526.1090  1.3755028  0.0122055
 5531.6342  1.3731040  0.0121427
 5537.1729  1.3750839  0.0118990
 5542.7110  1.3673224  0.0120225
 5548.2496  1.3654640  0.0117892
 5553.8011  1.3602886  0.0119054
 5559.3525  1.3567187  0.0118398
 5564.9167  1.3533744  0.0116038
 5570.4815  1.3574868  0.0117204
 5576.0457  1.3545905  0.0116578
 5581.6233  1.3561915  0.0114198
 5587.2009  1.3535167  0.0115367
 5592.7919  1.3569827  0.0113104
 5598.3822  1.3528222  0.0112377
 5603.9860  1.3561780  0.0113546
 5609.5897  1.3554481  0.0111277
 5615.1934  1.3503650  0.0110578
 5620.8099  1.3484646  0.0110227
 5626.4398  1.3405617  0.0109480
 5632.0569  1.3378787  0.0108808
 5637.6996  1.3338714  0.0108436
 5643.3295  1.3270129  0.0107718
 5648.9721  1.3162951  0.0107073
 5654.6282  1.3100520  0.0106686
 5660.2842  1.3042817  0.0105996
 5665.9402  1.3068503  0.0103882
 5671.6090  1.3062742  0.0104984
 5677.2778  1.3084182  0.0104321
 5682.9600  1.3066297  0.0102254
 5688.6422  1.3107455  0.0103335
 5694.3244  1.3189178  0.0102700
 5700.0193  1.3230160  0.0100678
 5705.7277  1.3255562  0.0101746
 5711.4226  1.3299818  0.0101139
 5717.1437  1.3351629  0.0099162
 5722.8520  1.3425486  0.0100224
 5728.5731  1.3466479  0.0099646
 5734.3076  1.3525240  0.0097712
 5740.0421  1.3638417  0.0098778
 5745.7893  1.3718570  0.0098229
 5751.5238  1.3834901  0.0096338
 5757.2838  1.3930477  0.0097414
 5763.0444  1.4073607  0.0096895
 5768.8051  1.4153904  0.0095046
 5774.5651  1.4214948  0.0094651
 5780.3519  1.4237179  0.0095653
 5786.1253  1.4182028  0.0093845
 5791.9120  1.4151772  0.0093479
 5797.7116  1.4196494  0.0094512
 5803.4984  1.4243205  0.0092744
 5809.3107  1.4207221  0.0092409
 5815.1102  1.4174327  0.0093481
 5820.9359  1.4148061  0.0091751
 5826.7488  1.4190693  0.0091448
 5832.5879  1.4174411  0.0091203
 5838.4136  1.4120340  0.0090875
 5844.2521  1.4091747  0.0090606
 5850.1039  1.4145862  0.0090394
 5855.9430  1.4092978  0.0088841
 5861.8076  1.4147804  0.0089891
 5867.6594  1.4200088  0.0089713
 5873.5374  1.4193552  0.0088246
 5879.4027  1.4111584  0.0089310
 5885.2807  1.4023699  0.0089166
 5891.1714  1.3911725  0.0089077
 5897.0628  1.3834836  0.0087629
 5902.9669  1.3790596  0.0088754
 5908.8577  1.3762203  0.0088696
 5914.7752  1.3748800  0.0087338
 5920.6921  1.3642890  0.0087261
 5926.6096  1.3607305  0.0088445
 5932.5393  1.3598568  0.0087177
 5938.4696  1.3604769  0.0087128
 5944.4133  1.3588139  0.0087123
 5950.3563  1.3520736  0.0088362
 5956.3000  1.3419732  0.0087119
 5962.2558  1.3441488  0.0087137
 5968.2257  1.3435050  0.0087197
 5974.1949  1.3455855  0.0087234
 5980.1647  1.3520771  0.0087270
 5986.1466  1.3432595  0.0087347
 5992.1292  1.3355097  0.0087464
 5998.1252  1.3316318  0.0087520
 6004.1206  1.3224516  0.0087610
 6010.1293  1.3189892  0.0087739
 6016.1374  1.3130192  0.0087904
 6022.1595  1.3116915  0.0087986
 6028.1810  1.3115115  0.0088123
 6034.2025  1.3058088  0.0088296
 6040.2374  1.3085837  0.0088502
 6046.2851  1.3068476  0.0087382
 6052.3334  1.3035398  0.0088792
 6058.3810  1.3031766  0.0089001
 6064.4421  1.2966288  0.0089241
 6070.5025  1.2913102  0.0088133
 6076.5763  1.2961968  0.0089601
 6082.6507  1.2941395  0.0089839
 6088.7372  1.2911859  0.0090107
 6094.8244  1.2815605  0.0089001
 6100.9244  1.2683858  0.0089317
 6107.0116  1.2615536  0.0090796
 6113.1243  1.2587297  0.0091083
 6119.2376  1.2539347  0.0089973
 6125.3637  1.2525814  0.0090305
 6131.4898  1.2447892  0.0090661
 6137.6159  1.2408719  0.0092158
 6143.7554  1.2369114  0.0091037
 6149.8949  1.2323686  0.0091377
 6156.0471  1.2242892  0.0091740
 6162.1994  1.2209342  0.0092123
 6168.3644  1.2152483  0.0092528
 6174.5428  1.2095860  0.0092522
 6180.7084  1.2004145  0.0092884
 6186.8868  1.1912555  0.0093265
 6193.0786  1.1847887  0.0093665
 6199.2698  1.1771913  0.0092607
 6205.4743  1.1694517  0.0094084
 6211.6789  1.1562471  0.0094457
 6217.8968  1.1496893  0.0094845
 6224.1013  1.1488649  0.0095249
 6230.3320  1.1400481  0.0094191
 6236.5621  1.1340158  0.0094544
 6242.8062  1.1270885  0.0096061
 6249.0496  1.1204273  0.0096445
 6255.2937  1.1177181  0.0096842
 6261.5506  1.1176109  0.0095792
 6267.8074  1.1140485  0.0096136
 6274.0770  1.1114261  0.0096490
 6280.3466  1.1084117  0.0096853
 6286.6296  1.1002340  0.0098411
 6292.9260  1.0927312  0.0098799
 6299.2218  1.0884985  0.0097706
 6305.5175  1.0826823  0.0098038
 6311.8139  1.0793372  0.0098376
 6318.1358  1.0769576  0.0098720
 6324.4450  1.0710043  0.0099069
 6330.7669  1.0644088  0.0099226
 6337.1022  1.0556753  0.0099526
 6343.4375  1.0501826  0.0099830
 6349.7855  1.0390013  0.0100136
 6356.1336  1.0378971  0.0100445
 6362.4950  1.0388116  0.0100756
 6368.8565  1.0446037  0.0099582
 6375.2179  1.0505069  0.0101190
 6381.6049  1.0517673  0.0101450
 6387.9797  1.0503136  0.0101710
 6394.3667  1.0534993  0.0101969
 6400.7677  1.0539207  0.0102227
 6407.1680  1.0510814  0.0100989
 6413.5684  1.0498229  0.0101239
 6419.9949  1.0457984  0.0101486
 6426.4086  1.0475531  0.0101729
 6432.8351  1.0440984  0.0103238
 6439.2750  1.0376141  0.0103428
 6445.7015  1.0330211  0.0103613
 6452.1542  1.0311244  0.0102297
 6458.6068  1.0260150  0.0102470
 6465.0595  1.0240402  0.0102635
 6471.5255  1.0235796  0.0102792
 6478.0043  1.0271698  0.0102941
 6484.4831  1.0342301  0.0103081
 6490.9619  1.0395679  0.0103211
 6497.4541  1.0403655  0.0104592
 6503.9591  1.0360355  0.0103184
 6510.4640  1.0332054  0.0103251
 6516.9690  1.0334911  0.0103308
 6523.4867  1.0299803  0.0103355
 6530.0050  1.0260513  0.0103392
 6536.5361  1.0215281  0.0103418
 6543.0800  1.0180351  0.0103435
 6549.6245  1.0159559  0.0104813
 6556.1683  1.0095547  0.0103595
 6562.7256  1.0086621  0.0101995
 6569.2828  1.0115470  0.0102153
 6575.8529  1.0159163  0.0102564
 6582.4363  1.0153998  0.0103088
 6589.0197  1.0156827  0.0104788
 6595.6165  1.0183223  0.0105286
 6602.1999  1.0193807  0.0105648
 6608.8094  1.0202227  0.0105810
 6615.4183  1.0155486  0.0105751
 6622.0279  1.0153925  0.0105413
 6628.6508  1.0145665  0.0103363
 6635.2859  1.0187486  0.0102716
 6641.9216  1.0184886  0.0101976
 6648.5573  1.0227984  0.0101222
 6655.2057  1.0237033  0.0100552
 6661.8676  1.0305269  0.0100084
 6668.5294  1.0323702  0.0099972
 6675.1913  1.0337991  0.0100450
 6681.8659  1.0401320  0.0099480
 6688.5539  1.0408856  0.0099251
 6695.2419  1.0414633  0.0099014
 6701.9427  1.0464082  0.0098770
 6708.6434  1.0437539  0.0098519
 6715.3442  1.0423923  0.0097022
 6722.0717  1.0393410  0.0096762
 6728.7852  1.0332447  0.0096495
 6735.5128  1.0300204  0.0096221
 6742.2525  1.0293055  0.0095941
 6748.9928  1.0241424  0.0095655
 6755.7458  1.0215797  0.0095362
 6762.4989  1.0265160  0.0095064
 6769.2653  1.0221612  0.0094759
 6776.0311  1.0250391  0.0094449
 6782.8110  1.0225456  0.0094133
 6789.5902  1.0214339  0.0093813
 6796.3821  1.0144272  0.0093486
 6803.1748  1.0105228  0.0093156
 6809.9801  1.0013041  0.0092820
 6816.7989  0.9916990  0.0092479
 6823.6042  0.9894244  0.0092135
 6830.4357  0.9854389  0.0091786
 6837.2672  0.9783741  0.0091433
 6844.0987  0.9760068  0.0091077
 6850.9430  0.9720473  0.0090717
 6857.8007  0.9704658  0.0090354
 6864.6583  0.9693341  0.0089988
 6871.5160  0.9661788  0.0089619
 6878.3870  0.9688333  0.0089247
 6885.2708  0.9767373  0.0088873
 6892.1546  0.9816555  0.0088497
 6899.0512  0.9793450  0.0088119
 6905.9484  0.9773684  0.0087741
 6912.8577  0.9805710  0.0087359
 6919.7677  0.9847038  0.0086977
 6926.6910  0.9843169  0.0086594
 6933.6137  0.9816120  0.0086210
 6940.5498  0.9770224  0.0085826
 6947.4860  0.9783987  0.0085443
 6954.4348  0.9812578  0.0085059
 6961.3971  0.9770026  0.0084676
 6968.3593  0.9762123  0.0084293
 6975.3216  0.9741159  0.0083912
 6982.2966  0.9673159  0.0083532
 6989.2850  0.9667955  0.0083154
 6996.2734  0.9632833  0.0082777
 7003.2746  0.9596881  0.0082402
 7010.2630  0.9578371  0.0080981
 7017.2775  0.9559929  0.0080617
 7024.3049  0.9482232  0.0080256
 7031.3194  0.9448500  0.0079898
 7038.3595  0.9414723  0.0079544
