# SOURCE  = 'Quimby et al. 2018' /                                                
# OBJECT  = '2011ke  '           /                                                
# Z       = 0.142900 / wavelengths in OBSERVER FRAME (from rest frame x (1+z))
# NORM    =             0.208486 / fluxes divided by norm                         
# CLIPPED =                    1 / galaxy emission lines removed                  
# SMOOTHED=                    1 / spectrum has been smoothed                     
# COLUMN01= 'Wavelength (Angstrom)' /                                             
# COLUMN02= 'Flux Density (erg/s/cm2/A)' /                                        
# COLUMN03= 'Flux Density Uncertainty (erg/s/cm2/A)' /                            
# END                                                                             
# 
# 
# 
# 
# 
# 
# 
# 
# 
# 
# Converted to Observer Frame using z=0.143
 4509.97991 2.0103073 0.0786212
 4514.48881 2.0155571 0.0625398
 4519.01269 2.0096803 0.0572706
 4523.52160 2.0101974 0.0496816
 4528.04536 2.0141890 0.0418737
 4532.58422 2.0160429 0.0394655
 4537.10775 2.0234327 0.0346643
 4541.64649 2.0336590 0.0331861
 4546.18534 2.0294199 0.0303086
 4550.73906 2.0309260 0.0293617
 4555.29288 2.0424347 0.0276457
 4559.84625 2.0624886 0.0269915
 4564.39996 2.0678775 0.0259433
 4568.96865 2.0915763 0.0250715
 4573.53733 2.0985804 0.0246289
 4578.10613 2.1132047 0.0240500
 4582.68934 2.1236179 0.0236823
 4587.27299 2.1268845 0.0232911
 4591.85665 2.1297331 0.0229714
 4596.45483 2.1357608 0.0231411
 4601.05346 2.1558447 0.0230689
 4605.65209 2.1710651 0.0229986
 4610.25027 2.1687489 0.0226260
 4614.86376 2.1657445 0.0225489
 4619.47736 2.1670544 0.0227110
 4624.10548 2.1787078 0.0226366
 4628.71897 2.1809945 0.0225642
 4633.34744 2.1794927 0.0224938
 4637.99053 2.1765859 0.0226459
 4642.63397 2.1726949 0.0225666
 4647.26209 2.1696851 0.0224896
 4651.92039 2.1588364 0.0221270
 4656.56348 2.1548445 0.0222884
 4661.22178 2.1492920 0.0222054
 4665.87985 2.1421261 0.0221247
 4670.55312 2.1357715 0.0220464
 4675.22604 2.1249356 0.0222136
 4679.89943 2.1179378 0.0221391
 4684.57236 2.1219661 0.0217615
 4689.26060 2.1101699 0.0216799
 4693.94850 2.0966473 0.0218393
 4698.65172 2.0842113 0.0217617
 4703.33962 2.0780685 0.0216869
 4708.04237 2.0657630 0.0218451
 4712.76056 2.0686610 0.0217604
 4717.46344 2.0625055 0.0216788
 4722.18151 2.0515611 0.0213091
 4726.91422 2.0381801 0.0214733
 4731.63207 2.0313663 0.0213859
 4736.36511 2.0264249 0.0213016
 4741.11279 2.0160632 0.0212204
 4745.84550 1.9926597 0.0213883
 4750.59318 1.9869314 0.0213125
 4755.34120 1.9878060 0.0209263
 4760.10385 1.9807814 0.0210851
 4764.86651 1.9659350 0.0210038
 4769.62904 1.9533082 0.0209260
 4774.39204 1.9486583 0.0208516
 4779.16966 1.9542444 0.0210022
 4783.94718 1.9469379 0.0209178
 4788.73966 1.9336894 0.0205426
 4793.51729 1.9319471 0.0207100
 4798.31011 1.9229857 0.0206199
 4803.11757 1.9077070 0.0205339
 4807.91006 1.8949980 0.0204518
 4812.73249 1.8793520 0.0206244
 4817.53995 1.8789093 0.0202399
 4822.36226 1.8876112 0.0201528
 4827.18469 1.8893701 0.0203166
 4832.00713 1.8919947 0.0202365
 4836.84442 1.8860542 0.0201610
 4841.68171 1.8800405 0.0203198
 4846.51911 1.8799495 0.0202331
 4851.37137 1.8697490 0.0198528
 4856.22364 1.8682898 0.0197770
 4861.07590 1.8562397 0.0199350
 4865.92816 1.8539751 0.0198483
 4870.79540 1.8588243 0.0197666
 4875.67761 1.8702297 0.0199477
 4880.54485 1.8736898 0.0195541
 4885.42706 1.8678086 0.0194678
 4890.30916 1.8735962 0.0196403
 4895.20634 1.8759044 0.0195633
 4900.10341 1.8798620 0.0194917
 4905.00059 1.8740990 0.0196478
 4909.91263 1.8782939 0.0192607
 4914.80936 1.8844444 0.0191849
 4919.73638 1.8818099 0.0193543
 4924.64842 1.8744744 0.0192667
 4929.57543 1.8744912 0.0191854
 4934.50245 1.8634510 0.0190692
 4939.44398 1.8541471 0.0189774
 4944.38597 1.8506687 0.0188920
 4949.32796 1.8593286 0.0190767
 4954.26983 1.8661699 0.0190030
 4959.22634 1.8667797 0.0189362
 4964.18330 1.8626947 0.0187844
 4969.15512 1.8593462 0.0187069
 4974.12695 1.8547417 0.0186365
 4979.09842 1.8504583 0.0188080
 4984.07025 1.8490962 0.0187251
 4989.05704 1.8589545 0.0183462
 4994.04349 1.8635373 0.0185285
 4999.04526 1.8685989 0.0184422
 5004.04657 1.8648436 0.0186415
 5009.04834 1.8613352 0.0185698
 5014.04999 1.8633430 0.0181679
 5019.06639 1.8617662 0.0183605
 5024.08302 1.8563976 0.0182858
 5029.11427 1.8543410 0.0182196
 5034.14588 1.8528507 0.0184040
 5039.17713 1.8552197 0.0180110
 5044.22371 1.8564432 0.0179424
 5049.26994 1.8567218 0.0181360
 5054.31651 1.8477597 0.0180539
 5059.36263 1.8414546 0.0182767
 5064.42417 1.8489321 0.0178766
 5069.48538 1.8533144 0.0177924
 5074.56144 1.8628290 0.0180095
 5079.63785 1.8733464 0.0179434
 5084.71391 1.8810328 0.0178888
 5089.80540 1.8874983 0.0177517
 5094.88147 1.8931879 0.0176846
 5099.98736 1.8990668 0.0179061
 5105.07886 1.8994730 0.0178239
 5110.18475 1.8944629 0.0177537
 5115.30573 1.8896973 0.0176636
 5120.41209 1.8953065 0.0175803
 5125.53295 1.8936186 0.0178243
 5130.65394 1.8889267 0.0177644
 5135.78978 1.8830158 0.0173462
 5140.92596 1.8786343 0.0175864
 5146.07678 1.8862317 0.0175262
 5151.21262 1.8933342 0.0177706
 5156.36344 1.8978746 0.0176938
 5161.52922 1.9087785 0.0172989
 5166.68038 1.9247856 0.0175481
 5171.84617 1.9329436 0.0174716
 5177.02682 1.9514380 0.0170826
 5182.20758 1.9712284 0.0173356
 5187.38823 1.9830134 0.0172602
 5192.56899 1.9833304 0.0168775
 5197.76461 1.9836186 0.0171335
 5202.96023 1.9860384 0.0170597
 5208.17117 1.9860348 0.0166838
 5213.38176 1.9829953 0.0166418
 5218.59236 1.9794343 0.0168704
 5223.80295 1.9733275 0.0165018
 5229.02852 1.9648668 0.0164625
 5234.25409 1.9553725 0.0166926
 5239.49451 1.9431263 0.0163317
 5244.73505 1.9473675 0.0162957
 5249.97548 1.9694889 0.0162207
 5255.23054 1.9717880 0.0161739
 5260.48594 1.9717875 0.0161418
 5265.74145 1.9818583 0.0160715
 5271.01182 1.9853382 0.0160289
 5276.28220 1.9931619 0.0160012
 5281.56743 1.9941274 0.0159347
 5286.83780 1.9992164 0.0158969
 5292.12315 1.9984268 0.0158741
 5297.42301 1.9975905 0.0158106
 5302.72333 1.9990426 0.0157780
 5308.02353 1.9950767 0.0157606
 5313.32385 1.9843539 0.0156992
 5318.63903 1.9761488 0.0156721
 5323.95387 1.9716986 0.0153456
 5329.28402 1.9659470 0.0156001
 5334.61417 1.9594857 0.0155790
 5339.95884 1.9524319 0.0152530
 5345.28899 1.9669307 0.0155132
 5350.63412 1.9760846 0.0154986
 5355.99376 1.9725627 0.0154621
 5361.33888 1.9734428 0.0154384
 5366.69887 1.9708223 0.0151340
 5372.07348 1.9551169 0.0153922
 5377.44855 1.9428059 0.0153755
 5382.82351 1.9248924 0.0150686
 5388.21310 1.9203460 0.0153337
 5393.58806 1.9147255 0.0150469
 5398.99250 1.9113744 0.0150139
 5404.38243 1.9018141 0.0152865
 5409.78700 1.8930074 0.0149953
 5415.20676 1.8892570 0.0149699
 5420.61132 1.8867103 0.0152508
 5426.03108 1.8748748 0.0149540
 5431.46548 1.8714665 0.0152275
 5436.90021 1.8742491 0.0149484
 5442.33461 1.8792144 0.0149231
 5447.78432 1.8988305 0.0152055
 5453.21871 1.8981853 0.0149191
 5458.68305 1.8953724 0.0149025
 5464.13276 1.8856468 0.0149242
 5469.59699 1.8748205 0.0149000
 5475.07630 1.8637786 0.0149380
 5480.54087 1.8540336 0.0149058
 5486.03504 1.8500942 0.0148910
 5491.51435 1.8495817 0.0149195
 5497.00887 1.8415177 0.0148974
 5502.50304 1.8357626 0.0149408
 5508.01219 1.8211662 0.0149111
 5513.50636 1.8087058 0.0148992
 5519.03071 1.7959754 0.0149316
 5524.53985 1.7802848 0.0149126
 5530.07883 1.7667254 0.0146720
 5535.60295 1.7625552 0.0149323
 5541.14193 1.7554667 0.0146852
 5546.68136 1.7519644 0.0149579
 5552.22034 1.7441305 0.0149433
 5557.77429 1.7396846 0.0147079
 5563.34322 1.7332006 0.0149674
 5568.89717 1.7205145 0.0147258
 5574.46609 1.7178386 0.0149964
 5580.04988 1.7145059 0.0147483
 5585.61880 1.7169371 0.0150298
 5591.21756 1.7220665 0.0150144
 5596.80146 1.7341819 0.0147791
 5602.40021 1.7352071 0.0150454
 5607.99897 1.7396193 0.0148041
 5613.61270 1.7380627 0.0150799
 5619.22643 1.7314568 0.0148323
 5624.84016 1.7316282 0.0148439
 5630.46886 1.7380314 0.0148634
 5636.09757 1.7432688 0.0148700
 5641.74113 1.7414877 0.0151380
 5647.36983 1.7436638 0.0148987
 5653.02837 1.7435474 0.0151747
 5658.67205 1.7321264 0.0149295
 5664.33024 1.7290484 0.0149453
 5670.00375 1.7236814 0.0149621
 5675.67726 1.7136437 0.0149734
 5681.35077 1.7057301 0.0149961
 5687.02427 1.7095184 0.0150030
 5692.71230 1.7278956 0.0150311
 5698.41576 1.7366688 0.0150338
 5704.10424 1.7446644 0.0147903
 5709.80758 1.7449673 0.0150652
 5715.52555 1.7551329 0.0150837
 5721.24398 1.7517748 0.0150971
 5726.96230 1.7619673 0.0151118
 5732.68027 1.7816381 0.0151290
 5738.41355 1.8009551 0.0151401
 5744.16182 1.8177689 0.0151606
 5749.90962 1.8227870 0.0151682
 5755.65788 1.8296821 0.0149136
 5761.40580 1.8276905 0.0151959
 5767.16892 1.8237627 0.0149432
 5772.93170 1.8289984 0.0152227
 5778.70991 1.8389537 0.0149716
 5784.48766 1.8342069 0.0152485
 5790.28072 1.8375891 0.0149985
 5796.05847 1.8395448 0.0152729
 5801.86651 1.8394579 0.0150236
 5807.65912 1.8356565 0.0152955
 5813.46716 1.8300008 0.0150466
 5819.28983 1.8280877 0.0153161
 5825.11273 1.8351790 0.0150673
 5830.93529 1.8300523 0.0150561
 5836.75796 1.8289738 0.0150855
 5842.59583 1.8207628 0.0150723
 5848.44834 1.8205037 0.0151008
 5854.28587 1.8166574 0.0150857
 5860.15368 1.8051178 0.0151130
 5866.00607 1.7880580 0.0150964
 5871.87355 1.7632922 0.0151220
 5877.74137 1.7527106 0.0151038
 5883.62370 1.7441845 0.0151274
 5889.50604 1.7306356 0.0151080
 5895.40335 1.7107826 0.0151291
 5901.28614 1.6991132 0.0151087
 5907.19842 1.6789751 0.0151268
 5913.09573 1.6687039 0.0151057
 5919.00801 1.6631554 0.0151204
 5924.93515 1.6587954 0.0150987
 5930.86241 1.6561592 0.0151098
 5936.78955 1.6519183 0.0148553
 5942.73212 1.6400214 0.0150947
 5948.67423 1.6251270 0.0148396
 5954.61635 1.6179591 0.0150749
 5960.57355 1.6113588 0.0148196
 5966.53064 1.6155622 0.0150504
 5972.50258 1.6199118 0.0147951
 5978.47464 1.6076587 0.0150211
 5984.44671 1.6075016 0.0147660
 5990.43374 1.6152730 0.0149868
 5996.42066 1.6114575 0.0147323
 6002.42267 1.6125629 0.0149476
 6008.42456 1.6112474 0.0146940
 6014.44108 1.6192864 0.0146684
 6020.44298 1.6276157 0.0146512
 6026.47482 1.6334735 0.0146198
 6032.50665 1.6406622 0.0146042
 6038.53838 1.6549555 0.0145668
 6044.57022 1.6575421 0.0145531
 6050.61669 1.6560719 0.0145097
 6056.66339 1.6501267 0.0147169
 6062.72517 1.6479440 0.0144488
 6068.78685 1.6375500 0.0144141
 6074.84852 1.6364111 0.0143844
 6080.92482 1.6453382 0.0143434
 6087.01644 1.6459813 0.0143168
 6093.09308 1.6378564 0.0142694
 6099.19922 1.6311667 0.0142463
 6105.29084 1.6196705 0.0141926
 6111.39743 1.6109335 0.0139271
 6117.50391 1.6079431 0.0141131
 6123.62467 1.6087831 0.0138434
 6129.74612 1.6086793 0.0140314
 6135.88300 1.6011857 0.0139785
 6142.01909 1.5909778 0.0139477
 6148.15505 1.5909888 0.0138883
 6154.30645 1.5915017 0.0136233
 6160.45785 1.5828797 0.0137965
 6166.62376 1.5673662 0.0135273
 6172.78979 1.5577217 0.0137035
 6178.95570 1.5548114 0.0134300
 6185.13705 1.5363928 0.0133829
 6191.33279 1.5357562 0.0135433
 6197.51414 1.5246018 0.0132782
 6203.72531 1.5168122 0.0134424
 6209.92106 1.5132976 0.0131731
 6216.13223 1.4994853 0.0131243
 6222.34272 1.4888927 0.0130677
 6228.56842 1.4827983 0.0130125
 6234.79491 1.4758729 0.0131665
 6241.03523 1.4659175 0.0129009
 6247.27624 1.4561566 0.0128499
 6253.53188 1.4475954 0.0127900
 6259.77289 1.4444793 0.0127326
 6266.04316 1.4336905 0.0126801
 6272.29868 1.4318087 0.0126163
 6278.56964 1.4134338 0.0125627
 6284.85522 1.4042650 0.0125016
 6291.14069 1.3998502 0.0124415
 6297.42617 1.3949816 0.0123886
 6303.72707 1.3858885 0.0123224
 6310.02717 1.3843180 0.0122658
 6316.34259 1.3755028 0.0122055
 6322.65789 1.3731040 0.0121427
 6328.98862 1.3750839 0.0118990
 6335.31867 1.3673224 0.0120225
 6341.64929 1.3654640 0.0117892
 6347.99466 1.3602886 0.0119054
 6354.33991 1.3567187 0.0118398
 6360.69979 1.3533744 0.0116038
 6367.06035 1.3574868 0.0117204
 6373.42024 1.3545905 0.0116578
 6379.79543 1.3561915 0.0114198
 6386.17063 1.3535167 0.0115367
 6392.56114 1.3569827 0.0113104
 6398.95085 1.3528222 0.0112377
 6405.35600 1.3561780 0.0113546
 6411.76103 1.3554481 0.0111277
 6418.16606 1.3503650 0.0110578
 6424.58572 1.3484646 0.0110227
 6431.02069 1.3405617 0.0109480
 6437.44104 1.3378787 0.0108808
 6443.89064 1.3338714 0.0108436
 6450.32562 1.3270129 0.0107718
 6456.77511 1.3162951 0.0107073
 6463.24003 1.3100520 0.0106686
 6469.70484 1.3042817 0.0105996
 6476.16965 1.3068503 0.0103882
 6482.64909 1.3062742 0.0104984
 6489.12853 1.3084182 0.0104321
 6495.62328 1.3066297 0.0102254
 6502.11803 1.3107455 0.0103335
 6508.61279 1.3189178 0.0102700
 6515.12206 1.3230160 0.0100678
 6521.64676 1.3255562 0.0101746
 6528.15603 1.3299818 0.0101139
 6534.69525 1.3351629 0.0099162
 6541.21984 1.3425486 0.0100224
 6547.75905 1.3466479 0.0099646
 6554.31359 1.3525240 0.0097712
 6560.86812 1.3638417 0.0098778
 6567.43717 1.3718570 0.0098229
 6573.99170 1.3834901 0.0096338
 6580.57538 1.3930477 0.0097414
 6587.15975 1.4073607 0.0096895
 6593.74423 1.4153904 0.0095046
 6600.32791 1.4214948 0.0094651
 6606.94222 1.4237179 0.0095653
 6613.54122 1.4182028 0.0093845
 6620.15542 1.4151772 0.0093479
 6626.78436 1.4196494 0.0094512
 6633.39867 1.4243205 0.0092744
 6640.04213 1.4207221 0.0092409
 6646.67096 1.4174327 0.0093481
 6653.32973 1.4148061 0.0091751
 6659.97388 1.4190693 0.0091448
 6666.64797 1.4174411 0.0091203
 6673.30674 1.4120340 0.0090875
 6679.98015 1.4091747 0.0090606
 6686.66876 1.4145862 0.0090394
 6693.34285 1.4092978 0.0088841
 6700.04609 1.4147804 0.0089891
 6706.73469 1.4200088 0.0089713
 6713.45325 1.4193552 0.0088246
 6720.15729 1.4111584 0.0089310
 6726.87584 1.4023699 0.0089166
 6733.60891 1.3911725 0.0089077
 6740.34278 1.3834836 0.0087629
 6747.09117 1.3790596 0.0088754
 6753.82435 1.3762203 0.0088696
 6760.58805 1.3748800 0.0087338
 6767.35107 1.3642890 0.0087261
 6774.11477 1.3607305 0.0088445
 6780.89242 1.3598568 0.0087177
 6787.67075 1.3604769 0.0087128
 6794.46440 1.3588139 0.0087123
 6801.25725 1.3520736 0.0088362
 6808.05090 1.3419732 0.0087119
 6814.85838 1.3441488 0.0087137
 6821.68198 1.3435050 0.0087197
 6828.50477 1.3455855 0.0087234
 6835.32825 1.3520771 0.0087270
 6842.16556 1.3432595 0.0087347
 6849.00368 1.3355097 0.0087464
 6855.85710 1.3316318 0.0087520
 6862.70985 1.3224516 0.0087610
 6869.57779 1.3189892 0.0087739
 6876.44505 1.3130192 0.0087904
 6883.32831 1.3116915 0.0087986
 6890.21088 1.3115115 0.0088123
 6897.09346 1.3058088 0.0088296
 6903.99135 1.3085837 0.0088502
 6910.90387 1.3068476 0.0087382
 6917.81708 1.3035398 0.0088792
 6924.72948 1.3031766 0.0089001
 6931.65732 1.2966288 0.0089241
 6938.58436 1.2913102 0.0088133
 6945.52671 1.2961968 0.0089601
 6952.46975 1.2941395 0.0089839
 6959.42662 1.2911859 0.0090107
 6966.38429 1.2815605 0.0089001
 6973.35659 1.2683858 0.0089317
 6980.31426 1.2615536 0.0090796
 6987.30107 1.2587297 0.0091083
 6994.28858 1.2539347 0.0089973
 7001.29071 1.2525814 0.0090305
 7008.29284 1.2447892 0.0090661
 7015.29497 1.2408719 0.0092158
 7022.31242 1.2369114 0.0091037
 7029.32987 1.2323686 0.0091377
 7036.36184 1.2242892 0.0091740
 7043.39391 1.2209342 0.0092123
 7050.44051 1.2152483 0.0092528
 7057.50242 1.2095860 0.0092522
 7064.54970 1.2004145 0.0092884
 7071.61161 1.1912555 0.0093265
 7078.68884 1.1847887 0.0093665
 7085.76538 1.1771913 0.0092607
 7092.85712 1.1694517 0.0094084
 7099.94898 1.1562471 0.0094457
 7107.05604 1.1496893 0.0094845
 7114.14779 1.1488649 0.0095249
 7121.26948 1.1400481 0.0094191
 7128.39048 1.1340158 0.0094544
 7135.52749 1.1270885 0.0096061
 7142.66369 1.1204273 0.0096445
 7149.80070 1.1177181 0.0096842
 7156.95234 1.1176109 0.0095792
 7164.10386 1.1140485 0.0096136
 7171.27001 1.1114261 0.0096490
 7178.43616 1.1084117 0.0096853
 7185.61763 1.1002340 0.0098411
 7192.81442 1.0927312 0.0098799
 7200.01052 1.0884985 0.0097706
 7207.20650 1.0826823 0.0098038
 7214.40329 1.0793372 0.0098376
 7221.62922 1.0769576 0.0098720
 7228.84063 1.0710043 0.0099069
 7236.06657 1.0644088 0.0099226
 7243.30781 1.0556753 0.0099526
 7250.54906 1.0501826 0.0099830
 7257.80483 1.0390013 0.0100136
 7265.06070 1.0378971 0.0100445
 7272.33179 1.0388116 0.0100756
 7279.60298 1.0446037 0.0099582
 7286.87406 1.0505069 0.0101190
 7294.17440 1.0517673 0.0101450
 7301.46080 1.0503136 0.0101710
 7308.76114 1.0534993 0.0101969
 7316.07748 1.0539207 0.0102227
 7323.39302 1.0510814 0.0100989
 7330.70868 1.0498229 0.0101239
 7338.05417 1.0457984 0.0101486
 7345.38503 1.0475531 0.0101729
 7352.73052 1.0440984 0.0103238
 7360.09132 1.0376141 0.0103428
 7367.43681 1.0330211 0.0103613
 7374.81225 1.0311244 0.0102297
 7382.18757 1.0260150 0.0102470
 7389.56301 1.0240402 0.0102635
 7396.95365 1.0235796 0.0102792
 7404.35891 1.0271698 0.0102941
 7411.76418 1.0342301 0.0103081
 7419.16945 1.0395679 0.0103211
 7426.59004 1.0403655 0.0104592
 7434.02525 1.0360355 0.0103184
 7441.46035 1.0332054 0.0103251
 7448.89557 1.0334911 0.0103308
 7456.34530 1.0299803 0.0103355
 7463.79572 1.0260513 0.0103392
 7471.26076 1.0215281 0.0103418
 7478.74044 1.0180351 0.0103435
 7486.22080 1.0159559 0.0104813
 7493.70037 1.0095547 0.0103595
 7501.19536 1.0086621 0.0101995
 7508.69024 1.0115470 0.0102153
 7516.19986 1.0159163 0.0102564
 7523.72469 1.0153998 0.0103088
 7531.24952 1.0156827 0.0104788
 7538.78966 1.0183223 0.0105286
 7546.31449 1.0193807 0.0105648
 7553.86914 1.0202227 0.0105810
 7561.42312 1.0155486 0.0105751
 7568.97789 1.0153925 0.0105413
 7576.54786 1.0145665 0.0103363
 7584.13178 1.0187486 0.0102716
 7591.71639 1.0184886 0.0101976
 7599.30099 1.0227984 0.0101222
 7606.90012 1.0237033 0.0100552
 7614.51467 1.0305269 0.0100084
 7622.12910 1.0323702 0.0099972
 7629.74366 1.0337991 0.0100450
 7637.37272 1.0401320 0.0099480
 7645.01711 1.0408856 0.0099251
 7652.66149 1.0414633 0.0099014
 7660.32051 1.0464082 0.0098770
 7667.97941 1.0437539 0.0098519
 7675.63842 1.0423923 0.0097022
 7683.32795 1.0393410 0.0096762
 7691.00148 1.0332447 0.0096495
 7698.69113 1.0300204 0.0096221
 7706.39461 1.0293055 0.0095941
 7714.09877 1.0241424 0.0095655
 7721.81745 1.0215797 0.0095362
 7729.53624 1.0265160 0.0095064
 7737.27024 1.0221612 0.0094759
 7745.00355 1.0250391 0.0094449
 7752.75297 1.0225456 0.0094133
 7760.50160 1.0214339 0.0093813
 7768.26474 1.0144272 0.0093486
 7776.02880 1.0105228 0.0093156
 7783.80725 1.0013041 0.0092820
 7791.60114 0.9916990 0.0092479
 7799.37960 0.9894244 0.0092135
 7807.18801 0.9854389 0.0091786
 7814.99641 0.9783741 0.0091433
 7822.80481 0.9760068 0.0091077
 7830.62785 0.9720473 0.0090717
 7838.46620 0.9704658 0.0090354
 7846.30444 0.9693341 0.0089988
 7854.14279 0.9661788 0.0089619
 7861.99634 0.9688333 0.0089247
 7869.86452 0.9767373 0.0088873
 7877.73271 0.9816555 0.0088497
 7885.61552 0.9793450 0.0088119
 7893.49902 0.9773684 0.0087741
 7901.39635 0.9805710 0.0087359
 7909.29448 0.9847038 0.0086977
 7917.20781 0.9843169 0.0086594
 7925.12046 0.9816120 0.0086210
 7933.04842 0.9770224 0.0085826
 7940.97650 0.9783987 0.0085443
 7948.91898 0.9812578 0.0085059
 7956.87689 0.9770026 0.0084676
 7964.83468 0.9762123 0.0084293
 7972.79259 0.9741159 0.0083912
 7980.76501 0.9673159 0.0083532
 7988.75275 0.9667955 0.0083154
 7996.74050 0.9632833 0.0082777
 8004.74287 0.9596881 0.0082402
 8012.73061 0.9578371 0.0080981
 8020.74818 0.9559929 0.0080617
 8028.78050 0.9482232 0.0080256
 8036.79807 0.9448500 0.0079898
 8044.84491 0.9414723 0.0079544
 8052.87780 0.9420291 0.0079194
 8060.93995 0.9386132 0.0078848
 8069.00210 0.9283118 0.0078506
 8077.06414 0.9206437 0.0078170
 8085.14160 0.9165791 0.0077838
 8093.23358 0.9102569 0.0077512
 8101.32557 0.9028737 0.0077191
 8109.43287 0.8930824 0.0076876
 8117.53948 0.8849682 0.0075569
 8125.66210 0.8806442 0.0076266
 8133.78391 0.8771173 0.0078327
 8141.92047 0.8791488 0.0081028
 8150.05760 0.8840905 0.0075303
 8158.20936 0.8894414 0.0074717
 8166.36112 0.8910494 0.0075591
 8174.52820 0.8951886 0.0078094
