# SOURCE  = 'Quimby et al. 2018' /                                                
# OBJECT  = '2011ke  '           /                                                
# Z       = 0.142900 / wavelengths in OBSERVER FRAME (from rest frame x (1+z))
# NORM    =          1.96360E-18 / fluxes divided by norm                         
# CLIPPED =                    1 / galaxy emission lines removed                  
# SMOOTHED=                    1 / spectrum has been smoothed                     
# COLUMN01= 'Wavelength (Angstrom)' /                                             
# COLUMN02= 'Flux Density (erg/s/cm2/A)' /                                        
# COLUMN03= 'Flux Density Uncertainty (erg/s/cm2/A)' /                            
# END                                                                             
# 
# 
# 
# 
# 
# 
# 
# 
# 
# 
 3620.7253  3.9237559  0.6120732
 3624.3566  3.8371429  0.5936861
 3627.9749  3.8030279  0.5762684
 3631.6062  3.6806819  0.5597750
 3635.2376  3.6522377  0.5422252
 3638.8689  3.6704197  0.5274659
 3642.5133  3.7150619  0.5135700
 3646.1574  3.7730379  0.5004466
 3649.8018  3.6714745  0.4837812
 3653.4462  3.5784032  0.4721496
 3657.1037  3.5125673  0.4610489
 3660.7611  3.4201188  0.4469306
 3664.4186  3.3378930  0.4370068
 3668.0889  3.3415668  0.4275855
 3671.7594  3.2977130  0.4186674
 3675.4300  3.3134990  0.4073363
 3679.1005  3.3626590  0.3993608
 3682.7838  3.4015958  0.3916405
 3686.4675  3.3507361  0.3826619
 3690.1511  3.3747864  0.3754300
 3693.8344  3.4582634  0.3683378
 3697.5311  3.3753612  0.3590415
 3701.2278  3.3860023  0.3525651
 3704.9373  3.3661008  0.3463611
 3708.6340  3.4734714  0.3381347
 3712.3438  3.4936771  0.3320808
 3716.0663  3.5067298  0.3261882
 3719.7761  3.4786503  0.3204575
 3723.4990  3.5430491  0.3130544
 3727.2215  3.5297294  0.3077673
 3730.9443  3.5050066  0.3026528
 3734.6800  3.5423543  0.2964060
 3738.4159  3.5021608  0.2912409
 3742.1518  3.4472427  0.2865165
 3745.9005  3.4232111  0.2806845
 3749.6364  3.4553409  0.2762183
 3753.3851  3.4282329  0.2718780
 3757.1472  3.3636148  0.2662672
 3760.8959  3.3487861  0.2622470
 3764.6580  3.3091969  0.2582889
 3768.4328  3.3369591  0.2530876
 3772.1949  3.3152027  0.2493180
 3775.9697  3.3308661  0.2446637
 3779.7446  3.3744590  0.2409643
 3783.5197  3.4027381  0.2374624
 3787.3076  3.3821175  0.2330495
 3791.0959  3.4155383  0.2297948
 3794.8838  3.3740759  0.2266881
 3798.6848  3.3572931  0.2226504
 3802.4861  3.3200305  0.2196657
 3806.2870  3.2800736  0.2166781
 3810.0880  3.2672958  0.2127306
 3813.9024  3.3105884  0.2098812
 3817.7165  3.3442307  0.2061253
 3821.5305  3.3032622  0.2033939
 3825.3580  3.2827055  0.2008067
 3829.1851  3.2687097  0.1975754
 3833.0123  3.2355306  0.1949698
 3836.8397  3.2275939  0.1924410
 3840.6799  3.2072139  0.1891726
 3844.5201  3.1587927  0.1867520
 3848.3604  3.1558051  0.1836659
 3852.2136  3.1641567  0.1814446
 3856.0673  3.1602683  0.1793332
 3859.9205  3.1802526  0.1765963
 3863.7869  3.1794336  0.1746833
 3867.6402  3.1868622  0.1721793
 3871.5065  3.1493022  0.1703625
 3875.3863  3.1582401  0.1685658
 3879.2657  3.1557562  0.1662398
 3883.1452  3.1573913  0.1645659
 3887.0246  3.1628554  0.1623803
 3890.9171  3.1543963  0.1608541
 3894.7966  3.1299541  0.1594449
 3898.7021  3.1253071  0.1576366
 3902.5947  3.1396921  0.1563099
 3906.5002  3.1368096  0.1544633
 3910.4058  3.1153793  0.1531442
 3914.3114  3.0863583  0.1513940
 3918.2301  3.1132042  0.1500977
 3922.1487  3.1130514  0.1487738
 3926.0674  3.0863762  0.1469789
 3929.9991  3.0707836  0.1456998
 3933.9309  3.0657589  0.1440005
 3937.8626  3.0570636  0.1428424
 3941.7943  3.0377183  0.1413240
 3945.7392  3.0648062  0.1402392
 3949.6840  3.0673006  0.1388102
 3953.6419  3.0773640  0.1378801
 3957.5867  3.0897131  0.1370807
 3961.5445  3.0778930  0.1358335
 3965.5155  3.0781729  0.1349918
 3969.4731  3.0744815  0.1339069
 3973.4440  3.0519655  0.1331507
 3977.4150  3.0450127  0.1320653
 3981.3990  3.0556672  0.1313562
 3985.3831  3.0518820  0.1304034
 3989.3668  3.0492864  0.1297091
 3993.3508  3.0375762  0.1286632
 3997.3479  3.0111990  0.1280792
 4001.3450  2.9367938  0.1270480
 4005.3422  2.9227879  0.1263508
 4009.3520  2.9459112  0.1253882
 4013.3622  2.9416976  0.1246623
 4017.3724  2.9355996  0.1235908
 4021.3953  2.9325745  0.1230252
 4025.4186  2.9102523  0.1220028
 4029.4419  2.8895152  0.1213302
 4033.4648  2.8600285  0.1204169
 4037.5011  2.8512485  0.1197427
 4041.5375  2.8527219  0.1187272
 4045.5866  2.8386703  0.1181580
 4049.6229  2.8329170  0.1171588
 4053.6723  2.8139555  0.1165164
 4057.7345  2.7795138  0.1156892
 4061.7970  2.7627175  0.1150865
 4065.8461  2.7747912  0.1142070
 4069.9216  2.7839668  0.1137647
 4073.9838  2.7795434  0.1128777
 4078.0593  2.7672355  0.1122945
 4082.1346  2.7407088  0.1115205
 4086.2232  2.7555931  0.1109506
 4090.3115  2.7606986  0.1100456
 4094.4002  2.7393501  0.1095834
 4098.4885  2.7212815  0.1087559
 4102.5902  2.7049270  0.1079459
 4106.6916  2.6872127  0.1075307
 4110.8064  2.6826410  0.1067288
 4114.9078  2.6631818  0.1062060
 4119.0222  2.6622050  0.1054488
 4123.1501  2.6522055  0.1049014
 4127.2646  2.6681690  0.1041913
 4131.3924  2.6734028  0.1036602
 4135.5330  2.6561227  0.1028274
 4139.6606  2.6364484  0.1021205
 4143.8015  2.6293044  0.1015891
 4147.9552  2.6065555  0.1007998
 4152.0958  2.6179354  0.1003871
 4156.2495  2.6168249  0.0996343
 4160.4035  2.6134338  0.0992483
 4164.5703  2.6249616  0.0985054
 4168.7371  2.6175759  0.0977558
 4172.9038  2.6240084  0.0973813
 4177.0709  2.6152318  0.0966424
 4181.2508  2.6077716  0.0962778
 4185.4306  2.6194639  0.0955631
 4189.6235  2.6186152  0.0948639
 4193.8034  2.6251316  0.0945173
 4197.9966  2.6177700  0.0938346
 4202.2026  2.6104679  0.0935019
 4206.3955  2.6132300  0.0928185
 4210.6146  2.6130755  0.0921791
 4214.8206  2.6034112  0.0918828
 4219.0396  2.6152868  0.0912082
 4223.2587  2.6247859  0.0908519
 4227.4778  2.6180718  0.0901802
 4231.7099  2.6240797  0.0895038
 4235.9420  2.6119363  0.0891354
 4240.1742  2.5975268  0.0884441
 4244.4194  2.5916488  0.0878303
 4248.6646  2.5914047  0.0873962
 4252.9098  2.5996373  0.0868257
 4257.1550  2.6050377  0.0864034
 4261.4133  2.6113000  0.0858514
 4265.6847  2.6062777  0.0852249
 4269.9430  2.5961785  0.0848408
 4274.2144  2.5871568  0.0843752
 4278.4857  2.5688460  0.0838220
 4282.7702  2.5491049  0.0835306
 4287.0546  2.5303757  0.0829563
 4291.3391  2.5254316  0.0824803
 4295.6366  2.5328219  0.0821585
 4299.9207  2.5394371  0.0817725
 4304.2313  2.5559740  0.0812865
 4308.5288  2.5614214  0.0809830
 4312.8394  2.5458031  0.0803273
 4317.1500  2.5423689  0.0796999
 4321.4733  2.5324907  0.0793691
 4325.7970  2.5428178  0.0787597
 4330.1207  2.5483172  0.0783049
 4334.4443  2.5558455  0.0780049
 4338.7807  2.5566325  0.0776336
 4343.1175  2.5559363  0.0771997
 4347.4673  2.5438530  0.0768456
 4351.8171  2.5448527  0.0765810
 4356.1666  2.5542519  0.0762084
 4360.5164  2.5481133  0.0757201
 4364.8793  2.5405507  0.0755185
 4369.2419  2.5339296  0.0750986
 4373.6179  2.5380976  0.0748093
 4377.9935  2.5196140  0.0744478
 4382.3695  2.5075331  0.0743278
 4386.7454  2.4977217  0.0739630
 4391.1342  2.4951766  0.0736845
 4395.5232  2.4975371  0.0734758
 4399.9250  2.4905019  0.0731893
 4404.3271  2.4653349  0.0728034
 4408.7289  2.4462514  0.0725041
 4413.1441  2.4441245  0.0722798
 4417.5590  2.4439116  0.0719719
 4421.9742  2.4375575  0.0716562
 4426.3890  2.4128106  0.0712492
 4430.8173  2.4150677  0.0711043
 4435.2453  2.4045060  0.0706933
 4439.6863  2.3942494  0.0703775
 4444.1276  2.3872032  0.0699869
 4448.5686  2.3698406  0.0696738
 4453.0231  2.3655949  0.0694390
 4457.4641  2.3496449  0.0691035
 4461.9312  2.3426838  0.0687050
 4466.3857  2.3462141  0.0684019
 4470.8528  2.3447165  0.0682590
 4475.3331  2.3332567  0.0678818
 4479.8006  2.3219252  0.0675910
 4484.2808  2.3141425  0.0672342
 4488.7611  2.3264148  0.0669645
 4493.2544  2.3326645  0.0667640
 4497.7480  2.3299668  0.0664859
 4502.2544  2.3241653  0.0662480
 4506.7477  2.3359456  0.0659075
 4511.2541  2.3361828  0.0656176
 4515.7736  2.3406422  0.0654204
 4520.2803  2.3357389  0.0651686
 4524.7998  2.3320384  0.0648617
 4529.3323  2.3258762  0.0646373
 4533.8649  2.3184104  0.0644223
 4538.3974  2.3144975  0.0641345
 4542.9300  2.3256145  0.0640568
 4547.4756  2.3129644  0.0637835
 4552.0212  2.3108664  0.0635962
 4556.5802  2.3097260  0.0634131
 4561.1389  2.2981305  0.0631477
 4565.6976  2.3013041  0.0629661
 4570.2563  2.2946186  0.0629292
 4574.8281  2.2812550  0.0628119
 4579.3999  2.2764833  0.0626419
 4583.9847  2.2739906  0.0623907
 4588.5696  2.2831857  0.0622228
 4593.1544  2.2893558  0.0620626
 4597.7520  2.2808752  0.0619307
 4602.3499  2.2771115  0.0618885
 4606.9479  2.2656829  0.0618458
 4611.5589  2.2558963  0.0615874
 4616.1699  2.2416956  0.0614253
 4620.7939  2.2430267  0.0611875
 4625.4049  2.2334237  0.0610628
 4630.0290  2.2250295  0.0609275
 4634.6658  2.2301700  0.0607186
 4639.3030  2.2425120  0.0606045
 4643.9401  2.2515860  0.0605985
 4648.5773  2.2662358  0.0603953
 4653.2275  2.2608194  0.0602735
 4657.8774  2.2478495  0.0601143
 4662.5407  2.2354152  0.0598599
 4667.2040  2.2241161  0.0597032
 4671.8800  2.2169189  0.0595725
 4676.5433  2.2086501  0.0593715
 4681.2197  2.2088881  0.0592641
 4685.9088  2.1917415  0.0591672
 4690.5852  2.1864412  0.0590527
 4695.2746  2.1792712  0.0588302
 4699.9768  2.1779439  0.0586879
 4704.6794  2.1724749  0.0586554
 4709.3819  2.1687419  0.0584160
 4714.0972  2.1705575  0.0582429
 4718.7997  2.1573825  0.0580817
 4723.5280  2.1735346  0.0578631
 4728.2436  2.1760228  0.0577250
 4732.9720  2.1772337  0.0575823
 4737.7137  2.1575887  0.0574338
 4742.4421  2.1515017  0.0572279
 4747.1838  2.1559241  0.0571116
 4751.9383  2.1618261  0.0569772
 4756.6931  2.1573467  0.0567603
 4761.4476  2.1557908  0.0566223
 4766.2155  2.1572855  0.0564798
 4770.9700  2.1446779  0.0563288
 4775.7507  2.1449158  0.0561053
 4780.5186  2.1478322  0.0559494
 4785.2992  2.1375394  0.0557930
 4790.0930  2.1449971  0.0556424
 4794.8739  2.1554494  0.0554243
 4799.6807  2.1278009  0.0552758
 4804.4745  2.1291525  0.0551324
 4809.2816  2.1358676  0.0549827
 4814.0884  2.1330280  0.0547617
 4818.9083  2.1403749  0.0546076
 4823.7151  2.1412277  0.0544555
 4828.5483  2.1596396  0.0543218
 4833.3682  2.1649406  0.0541962
 4838.2142  2.1556673  0.0540045
 4843.0472  2.1482332  0.0538875
 4847.8932  2.1393161  0.0537794
 4852.7396  2.1454558  0.0536804
 4857.5856  2.1538780  0.0535177
 4862.4447  2.1362598  0.0533302
 4867.3169  2.1203232  0.0532277
 4872.1760  2.1173928  0.0531311
 4877.0482  2.1226828  0.0530207
 4881.9334  2.1075113  0.0528513
 4886.8056  2.1015670  0.0527788
 4891.7039  2.0983112  0.0527073
 4896.5892  2.0902791  0.0526345
 4901.4875  2.0783942  0.0525658
 4906.3858  2.0828550  0.0525078
 4911.2972  2.0692682  0.0523813
 4916.2086  2.0607982  0.0523385
 4921.1200  2.0455737  0.0522240
 4926.0445  2.0503376  0.0521906
 4930.9690  2.0272408  0.0521661
 4935.9065  2.0200670  0.0521562
 4940.8310  2.0297053  0.0520702
 4945.7816  2.0220349  0.0520780
 4950.7192  2.0142775  0.0520891
 4955.6695  2.0154555  0.0520080
 4960.6332  2.0094502  0.0519946
 4965.5969  2.0088229  0.0519029
 4970.5606  1.9998045  0.0519008
 4975.5243  1.9984623  0.0518157
 4980.5007  1.9938869  0.0517307
 4985.4906  1.9884028  0.0517330
 4990.4674  1.9771301  0.0516508
 4995.4572  1.9781328  0.0516325
 5000.4598  1.9825575  0.0515331
 5005.4628  1.9709551  0.0515137
 5010.4657  1.9823277  0.0514914
 5015.4683  1.9911932  0.0513939
 5020.4843  1.9756628  0.0513734
 5025.5134  1.9670463  0.0513530
 5030.5421  1.9645807  0.0512558
 5035.5712  1.9608481  0.0512464
 5040.6000  1.9515631  0.0512238
 5045.6421  1.9456012  0.0512075
 5050.6839  1.9491450  0.0511930
 5055.7392  1.9449883  0.0510971
 5060.7941  1.9539264  0.0510807
 5065.8624  1.9584432  0.0510649
 5070.9173  1.9572752  0.0510514
 5075.9987  1.9571744  0.0510035
 5081.0666  1.9649675  0.0508730
 5086.1480  1.9731333  0.0508347
 5091.2422  1.9687058  0.0507947
 5096.3366  1.9753383  0.0507474
 5101.4307  1.9836713  0.0506306
 5106.5249  1.9867625  0.0506003
 5111.6324  1.9890639  0.0505741
 5116.7527  1.9803145  0.0505522
 5121.8599  1.9800707  0.0504664
 5126.9936  1.9812651  0.0504600
 5132.1138  1.9910327  0.0504532
 5137.2472  2.0129418  0.0504428
 5142.3809  2.0166550  0.0503379
 5147.5273  2.0156536  0.0503205
 5152.6737  2.0173316  0.0503116
 5157.8332  2.0138013  0.0502914
 5162.9800  2.0041919  0.0501903
 5168.1526  2.0158703  0.0501690
 5173.3121  2.0299065  0.0501539
 5178.4847  2.0207307  0.0500556
 5183.6703  2.0283051  0.0500396
 5188.8560  2.0187013  0.0500173
 5194.0416  2.0160360  0.0499115
 5199.2407  2.0283456  0.0499613
 5204.4394  2.0203426  0.0499181
 5209.6381  2.0146821  0.0498804
 5214.8500  2.0136151  0.0497675
 5220.0618  2.0048783  0.0497401
 5225.2866  1.9888637  0.0497176
 5230.5115  1.9828840  0.0496127
 5235.7364  1.9739844  0.0495882
 5240.9744  1.9768765  0.0495610
 5246.2123  1.9751793  0.0494578
 5251.4634  1.9715403  0.0494295
 5256.7144  1.9570298  0.0493934
 5261.9782  1.9446168  0.0492710
 5267.2292  1.9443572  0.0492269
 5272.5064  1.9372110  0.0491097
 5277.7836  1.9319681  0.0490701
 5283.0607  1.9167504  0.0490286
 5288.3379  1.9049879  0.0489120
 5293.6279  1.9114989  0.0489395
 5298.9181  1.8949625  0.0489046
 5304.2215  1.8946224  0.0488001
 5309.5248  1.8936869  0.0488450
 5314.8281  1.8823915  0.0487188
 5320.1442  1.8784959  0.0486697
 5325.4737  1.8784761  0.0486223
 5330.7901  1.8740457  0.0484911
 5336.1323  1.8720115  0.0484435
 5341.4618  1.8683387  0.0483284
 5346.8044  1.8783829  0.0483553
 5352.1469  1.8717102  0.0482371
 5357.5019  1.8721092  0.0482012
 5362.8575  1.8705268  0.0481719
 5368.2266  1.8660825  0.0480705
 5373.5950  1.8607726  0.0480432
 5378.9633  1.8529141  0.0479502
 5384.3451  1.8457775  0.0479328
 5389.7269  1.8380909  0.0479172
 5395.1214  1.8400395  0.0479082
 5400.5160  1.8283180  0.0478252
 5405.9105  1.8380556  0.0478091
 5411.3185  1.8287878  0.0477287
 5416.7391  1.8219832  0.0477250
 5422.1471  1.8313130  0.0476624
 5427.5812  1.8157439  0.0477309
 5433.0018  1.8086762  0.0477341
 5438.4359  1.8101416  0.0476785
 5443.8694  1.8107674  0.0476883
 5449.3162  1.7972910  0.0476354
 5454.7637  1.7956032  0.0477214
 5460.2233  1.7963036  0.0476706
 5465.6835  1.8020225  0.0476206
 5471.1565  1.7862936  0.0476365
 5476.6167  1.7792920  0.0475838
 5482.1025  1.7731057  0.0476797
 5487.5754  1.7666377  0.0476364
 5493.0618  1.7572032  0.0475861
 5498.5610  1.7624115  0.0475237
 5504.0601  1.7497520  0.0475321
 5509.5592  1.7407986  0.0475394
 5515.0718  1.7420772  0.0475462
 5520.5837  1.7295778  0.0474849
 5526.1090  1.7217306  0.0474911
 5531.6342  1.7183566  0.0475047
 5537.1729  1.7164279  0.0474444
 5542.7110  1.7198447  0.0474475
 5548.2496  1.7218539  0.0473812
 5553.8011  1.7231460  0.0474518
 5559.3525  1.7202507  0.0473948
 5564.9167  1.7032206  0.0473330
 5570.4815  1.7023782  0.0473331
 5576.0457  1.6912900  0.0473352
 5581.6233  1.6914628  0.0473308
 5587.2009  1.6962347  0.0472625
 5592.7919  1.6922803  0.0472035
 5598.3822  1.6931093  0.0472823
 5603.9860  1.6789706  0.0472230
 5609.5897  1.6841757  0.0472304
 5615.1934  1.6574105  0.0472448
 5620.8099  1.6532507  0.0471929
 5626.4398  1.6563574  0.0472086
 5632.0569  1.6575531  0.0471622
 5637.6996  1.6638476  0.0470997
 5643.3295  1.6566944  0.0471054
 5648.9721  1.6469151  0.0470461
 5654.6282  1.6500601  0.0470527
 5660.2842  1.6564802  0.0470585
 5665.9402  1.6536011  0.0469991
 5671.6090  1.6555353  0.0470100
 5677.2778  1.6538411  0.0470143
 5682.9600  1.6509157  0.0469511
 5688.6422  1.6463327  0.0469614
 5694.3244  1.6463802  0.0469107
 5700.0193  1.6506675  0.0469960
 5705.7277  1.6540294  0.0469611
 5711.4226  1.6543784  0.0469318
 5717.1437  1.6559469  0.0470385
 5722.8520  1.6628227  0.0470109
 5728.5731  1.6673745  0.0469834
 5734.3076  1.6666524  0.0470262
 5740.0421  1.6728897  0.0470585
 5745.7893  1.6693232  0.0470966
 5751.5238  1.6692588  0.0469936
 5757.2838  1.6717585  0.0469506
 5763.0444  1.6750525  0.0470344
 5768.8051  1.6738561  0.0469883
 5774.5651  1.6751529  0.0470111
 5780.3519  1.6706166  0.0469727
 5786.1253  1.6830138  0.0469852
 5791.9120  1.6895390  0.0469993
 5797.7116  1.6830664  0.0469653
 5803.4984  1.6735107  0.0469988
 5809.3107  1.6676706  0.0470194
 5815.1102  1.6702619  0.0470480
 5820.9359  1.6710593  0.0470129
 5826.7488  1.6727686  0.0469820
 5832.5879  1.6717498  0.0470160
 5838.4136  1.6689306  0.0469830
 5844.2521  1.6606989  0.0470770
 5850.1039  1.6702422  0.0470506
 5855.9430  1.6631776  0.0470980
 5861.8076  1.6587663  0.0470894
 5867.6594  1.6621656  0.0471402
 5873.5374  1.6580859  0.0471795
 5879.4027  1.6544104  0.0472296
 5885.2807  1.6440473  0.0472137
 5891.1714  1.6423825  0.0472667
 5897.0628  1.6462123  0.0472515
 5902.9669  1.6488661  0.0473018
 5908.8577  1.6367151  0.0472862
 5914.7752  1.6292952  0.0473439
 5920.6921  1.6196101  0.0473913
 5926.6096  1.6126958  0.0474570
 5932.5393  1.6156744  0.0474619
 5938.4696  1.6147636  0.0475402
 5944.4133  1.6051546  0.0475449
 5950.3563  1.6012725  0.0476300
 5956.3000  1.5899392  0.0476514
 5962.2558  1.5863558  0.0477438
 5968.2257  1.5886075  0.0477724
 5974.1949  1.5770417  0.0478762
 5980.1647  1.5839869  0.0479891
 5986.1466  1.5802970  0.0480810
 5992.1292  1.5824817  0.0481987
 5998.1252  1.5819105  0.0482465
 6004.1206  1.5778507  0.0483760
 6010.1293  1.5731332  0.0484280
 6016.1374  1.5677007  0.0485563
 6022.1595  1.5704113  0.0486852
 6028.1810  1.5808452  0.0487422
 6034.2025  1.5733232  0.0488795
 6040.2374  1.5695844  0.0489400
 6046.2851  1.5675581  0.0490830
 6052.3334  1.5560827  0.0492271
 6058.3810  1.5596101  0.0492904
 6064.4421  1.5579072  0.0494334
 6070.5025  1.5555021  0.0495030
 6076.5763  1.5358213  0.0496520
 6082.6507  1.5536869  0.0498019
 6088.7372  1.5599473  0.0498753
 6094.8244  1.5411884  0.0500274
 6100.9244  1.5344213  0.0504325
 6107.0116  1.5293525  0.0507812
 6113.1243  1.5313253  0.0511266
 6119.2376  1.5382799  0.0511154
 6125.3637  1.5362930  0.0511464
 6131.4898  1.5408286  0.0513965
 6137.6159  1.5415807  0.0514779
 6143.7554  1.5371972  0.0513933
 6149.8949  1.5314287  0.0514275
 6156.0471  1.5330595  0.0515056
 6162.1994  1.5350192  0.0515461
 6168.3644  1.5352613  0.0516822
 6174.5428  1.5307382  0.0519060
 6180.7084  1.5296323  0.0520911
 6186.8868  1.5256408  0.0522158
 6193.0786  1.5366230  0.0524272
 6199.2698  1.5301276  0.0526695
 6205.4743  1.5235710  0.0528609
 6211.6789  1.5179234  0.0531467
 6217.8968  1.5190860  0.0534477
 6224.1013  1.5243213  0.0538026
 6230.3320  1.5282062  0.0542652
 6236.5621  1.5222481  0.0547241
 6242.8062  1.5144559  0.0551171
 6249.0496  1.5160748  0.0555191
 6255.2937  1.5230230  0.0557485
 6261.5506  1.5295117  0.0559932
 6267.8074  1.5154003  0.0563276
 6274.0770  1.4938282  0.0567186
 6280.3466  1.4923099  0.0572346
 6286.6296  1.4879514  0.0578158
 6292.9260  1.4993582  0.0585374
 6299.2218  1.4942158  0.0589171
 6305.5175  1.4912192  0.0591496
 6311.8139  1.4744687  0.0593897
 6318.1358  1.4710259  0.0597955
 6324.4450  1.4695292  0.0602479
 6330.7669  1.4769592  0.0607478
 6337.1022  1.4743985  0.0612693
 6343.4375  1.4730316  0.0618110
 6349.7855  1.4840159  0.0621973
 6356.1336  1.4823468  0.0627169
 6362.4950  1.4787142  0.0632279
 6368.8565  1.4909784  0.0644843
 6375.2179  1.5095456  0.0649420
 6381.6049  1.5103008  0.0653571
 6387.9797  1.4914689  0.0657819
 6394.3667  1.4917988  0.0661734
 6400.7677  1.4886317  0.0663902
 6407.1680  1.4811291  0.0665603
 6413.5684  1.4956834  0.0666792
 6419.9949  1.5213090  0.0666096
 6426.4086  1.5222747  0.0666053
 6432.8351  1.5098433  0.0665337
 6439.2750  1.5091403  0.0664168
 6445.7015  1.5099399  0.0662589
 6452.1542  1.4874161  0.0660009
 6458.6068  1.4952695  0.0657169
