# SOURCE  = 'Quimby et al. 2018' /                                                
# OBJECT  = '2011ke  '           /                                                
# Z       = 0.142900 / wavelengths in OBSERVER FRAME (from rest frame x (1+z))
# NORM    =          1.62270E-17 / fluxes divided by norm                         
# CLIPPED =                    1 / galaxy emission lines removed                  
# SMOOTHED=                    1 / spectrum has been smoothed                     
# COLUMN01= 'Wavelength (Angstrom)' /                                             
# COLUMN02= 'Flux Density (erg/s/cm2/A)' /                                        
# COLUMN03= 'Flux Density Uncertainty (erg/s/cm2/A)' /                            
# END                                                                             
# 
# 
# 
# 
# 
# 
# 
# 
# 
# 
# Converted to Observer Frame using z=0.143
 4097.32696 0.8000981 0.0831792
 4101.43273 0.8142182 0.0794757
 4105.53850 0.8379402 0.0759670
 4109.64438 0.8456708 0.0727720
 4113.75015 0.8460749 0.0698002
 4117.85592 0.8565999 0.0670347
 4121.97655 0.8756747 0.0635903
 4126.09730 0.8824973 0.0612433
 4130.23267 0.8828561 0.0590641
 4134.35330 0.8860408 0.0563551
 4138.48902 0.8898404 0.0545141
 4142.63959 0.8960786 0.0527908
 4146.77531 0.9044701 0.0511496
 4150.92589 0.9180877 0.0494382
 4155.07658 0.9171638 0.0476126
 4159.22715 0.9097479 0.0462444
 4163.39270 0.9008573 0.0449733
 4167.55791 0.8959855 0.0436518
 4171.72346 0.8979425 0.0425499
 4175.88901 0.9022371 0.0415060
 4180.06953 0.9012437 0.0401682
 4184.24994 0.8981977 0.0392321
 4188.43046 0.8762242 0.0383485
 4192.62561 0.8686639 0.0372318
 4196.82099 0.8626978 0.0364500
 4201.01649 0.8647218 0.0357062
 4205.21187 0.8579406 0.0349999
 4209.42188 0.8578824 0.0341901
 4213.63235 0.8511305 0.0335436
 4217.84271 0.8498403 0.0328437
 4222.05272 0.8432333 0.0321097
 4226.27805 0.8457287 0.0315361
 4230.50338 0.8419470 0.0310084
 4234.74333 0.8274309 0.0303837
 4238.96866 0.8248070 0.0299274
 4243.20896 0.8208969 0.0294480
 4247.46378 0.8221911 0.0287784
 4251.70408 0.8196516 0.0282756
 4255.95936 0.8081570 0.0277815
 4260.21417 0.7975492 0.0271575
 4264.46933 0.7989944 0.0266872
 4268.73924 0.7909720 0.0262054
 4273.00937 0.7865919 0.0256450
 4277.27951 0.7806459 0.0252155
 4281.56427 0.7813477 0.0248012
 4285.83441 0.7724304 0.0242673
 4290.11917 0.7688567 0.0238909
 4294.41925 0.7616068 0.0235352
 4298.70401 0.7549452 0.0230729
 4303.00409 0.7496008 0.0227389
 4307.31869 0.7473577 0.0224053
 4311.61877 0.7357684 0.0219819
 4315.93337 0.7322664 0.0216449
 4320.24808 0.7306240 0.0213358
 4324.56302 0.7252592 0.0209324
 4328.89259 0.7256590 0.0206200
 4333.22261 0.7194542 0.0202138
 4337.55218 0.7228300 0.0199397
 4341.89673 0.7198117 0.0196747
 4346.24161 0.7206320 0.0193103
 4350.58604 0.7240179 0.0190365
 4354.93058 0.7278440 0.0187675
 4359.29044 0.7262158 0.0184116
 4363.64996 0.7234818 0.0181576
 4368.00936 0.7177882 0.0178410
 4372.38419 0.7123984 0.0176272
 4376.75857 0.7105443 0.0174217
 4381.13306 0.7106575 0.0171620
 4385.50778 0.7069429 0.0169494
 4389.89713 0.7052285 0.0166524
 4394.28647 0.7020935 0.0164378
 4398.67594 0.6982723 0.0162257
 4403.08014 0.6900823 0.0159451
 4407.48492 0.6907659 0.0157493
 4411.88913 0.6890446 0.0155078
 4416.30843 0.6917660 0.0153308
 4420.71275 0.6910483 0.0151613
 4425.13193 0.6962942 0.0149413
 4429.56654 0.6952832 0.0147802
 4434.00070 0.6990309 0.0145728
 4438.43496 0.6996765 0.0144267
 4442.86912 0.7002521 0.0142846
 4447.31825 0.6984994 0.0141033
 4451.75251 0.7006416 0.0139987
 4456.21650 0.7054682 0.0138546
 4460.66574 0.7088435 0.0137455
 4465.12973 0.7069512 0.0135909
 4469.59383 0.7037772 0.0134816
 4474.05793 0.7009495 0.0133619
 4478.53700 0.6965366 0.0131896
 4483.01596 0.7025660 0.0219186
 4487.49504 0.6976297 0.0217949
 4491.98897 0.6982912 0.0217450
 4496.48302 0.6899281 0.0215539
 4500.97695 0.6909632 0.0214178
 4505.47088 0.6885955 0.0210514
 4509.97991 0.6828544 0.0209502
 4514.48881 0.6666873 0.0208817
 4519.01269 0.6634980 0.0207487
 4523.52160 0.6625739 0.0206083
 4528.04536 0.6671864 0.0205155
 4532.58422 0.6745409 0.0205164
 4537.10775 0.6792132 0.0204042
 4541.64649 0.6967254 0.0202445
 4546.18534 0.7039110 0.0201078
 4550.73906 0.7115862 0.0200532
 4555.29288 0.7211181 0.0198930
 4559.84625 0.7258381 0.0196832
 4564.39996 0.7288172 0.0195323
 4568.96865 0.7382964 0.0194847
 4573.53733 0.7422637 0.0193233
 4578.10613 0.7528084 0.0190567
 4582.68934 0.7494280 0.0188300
 4587.27299 0.7299386 0.0187155
 4591.85665 0.7091537 0.0184933
 4596.45483 0.6980943 0.0183740
 4601.05346 0.6922749 0.0184244
 4605.65209 0.6921338 0.0184171
 4610.25027 0.6859986 0.0184172
 4614.86376 0.6863239 0.0184297
 4619.47736 0.6874003 0.0185560
 4624.10548 0.6841920 0.0185829
 4628.71897 0.6829348 0.0185936
 4633.34744 0.6832684 0.0187012
 4637.99053 0.6921193 0.0186639
 4642.63397 0.6897516 0.0185430
 4647.26209 0.6992875 0.0183872
 4651.92039 0.7082905 0.0182729
 4656.56348 0.7163154 0.0179405
 4661.22178 0.7150384 0.0176761
 4665.87985 0.7161289 0.0174708
 4670.55312 0.7013660 0.0172455
 4675.22604 0.6947109 0.0169909
 4679.89943 0.7010573 0.0169193
 4684.57236 0.6954361 0.0167828
 4689.26060 0.6922175 0.0166308
 4693.94850 0.6835054 0.0165650
 4698.65172 0.6793376 0.0166188
 4703.33962 0.6843196 0.0165818
 4708.04237 0.6893970 0.0166097
 4712.76056 0.6938570 0.0166707
 4717.46344 0.7083641 0.0165714
 4722.18151 0.7211573 0.0167372
 4726.91422 0.7281855 0.0169041
 4731.63207 0.7294110 0.0168754
 4736.36511 0.7407033 0.0170300
 4741.11279 0.7458958 0.0171780
 4745.84550 0.7525625 0.0170388
 4750.59318 0.7666255 0.0170985
 4755.34120 0.7726539 0.0171095
 4760.10385 0.7682827 0.0168338
 4764.86651 0.7588151 0.0167819
 4769.62904 0.7482010 0.0166272
 4774.39204 0.7320980 0.0164241
 4779.16966 0.7257087 0.0163283
 4783.94718 0.7268390 0.0161518
 4788.73966 0.7240502 0.0159402
 4793.51729 0.7230191 0.0158792
 4798.31011 0.7264284 0.0157515
 4803.11757 0.7206290 0.0156416
 4807.91006 0.7221979 0.0157257
 4812.73249 0.7263883 0.0154580
 4817.53995 0.7372167 0.0155216
 4822.36226 0.7336918 0.0156331
 4827.18469 0.7360085 0.0156520
 4832.00713 0.7452289 0.0156374
 4836.84442 0.7442298 0.0157096
 4841.68171 0.7582481 0.0156203
 4846.51911 0.7594169 0.0155184
 4851.37137 0.7605463 0.0153728
 4856.22364 0.7582066 0.0152826
 4861.07590 0.7653810 0.0151812
 4865.92816 0.7664827 0.0151164
 4870.79540 0.7720134 0.0150486
 4875.67761 0.7765753 0.0149069
 4880.54485 0.7866472 0.0149927
 4885.42706 0.7850683 0.0149336
 4890.30916 0.7892962 0.0148481
 4895.20634 0.7914714 0.0147026
 4900.10341 0.7968821 0.0144401
 4905.00059 0.7952883 0.0143820
 4909.91263 0.8003435 0.0141246
 4914.80936 0.7983593 0.0140789
 4919.73638 0.8007296 0.0138618
 4924.64842 0.7986740 0.0137574
 4929.57543 0.7995164 0.0136853
 4934.50245 0.8026945 0.0136105
 4939.44398 0.7917137 0.0136210
 4944.38597 0.7990625 0.0134252
 4949.32796 0.8023063 0.0133362
 4954.26983 0.8173452 0.0132787
 4959.22634 0.8175475 0.0132088
 4964.18330 0.8244492 0.0131378
 4969.15512 0.8287597 0.0130622
 4974.12695 0.8242093 0.0130447
 4979.09842 0.8180871 0.0130370
 4984.07025 0.8280931 0.0130232
 4989.05704 0.8311307 0.0129185
 4994.04349 0.8359509 0.0129980
 4999.04526 0.8330788 0.0129915
 5004.04657 0.8344299 0.0128615
 5009.04834 0.8313324 0.0128821
 5014.04999 0.8374341 0.0127093
 5019.06639 0.8349160 0.0125911
 5024.08302 0.8379118 0.0125531
 5029.11427 0.8392410 0.0123400
 5034.14588 0.8358716 0.0121912
 5039.17713 0.8442667 0.0120713
 5044.22371 0.8448852 0.0119294
 5049.26994 0.8514357 0.0118177
 5054.31651 0.8517045 0.0117448
 5059.36263 0.8556270 0.0116380
 5064.42417 0.8538379 0.0114729
 5069.48538 0.8554956 0.0114917
 5074.56144 0.8585828 0.0114481
 5079.63785 0.8647857 0.0113644
 5084.71391 0.8651133 0.0114412
 5089.80540 0.8681418 0.0114608
 5094.88147 0.8665444 0.0114167
 5099.98736 0.8682791 0.0115112
 5105.07886 0.8696916 0.0114869
 5110.18475 0.8716416 0.0113437
 5115.30573 0.8765013 0.0112502
 5120.41209 0.8818864 0.0112270
 5125.53295 0.8794530 0.0110455
 5130.65394 0.8789347 0.0109454
 5135.78978 0.8749456 0.0109511
 5140.92596 0.8731910 0.0108511
 5146.07678 0.8737903 0.0108406
 5151.21262 0.8772840 0.0108315
 5156.36344 0.8765335 0.0108078
 5161.52922 0.8814934 0.0107576
 5166.68038 0.8842767 0.0106983
 5171.84617 0.8828800 0.0105733
 5177.02682 0.8832251 0.0105957
 5182.20758 0.8857381 0.0105544
 5187.38823 0.8843261 0.0104719
 5192.56899 0.8780686 0.0104724
 5197.76461 0.8766424 0.0105542
 5202.96023 0.8724649 0.0105101
 5208.17117 0.8725463 0.0105552
 5213.38176 0.8805214 0.0105880
 5218.59236 0.8775297 0.0106750
 5223.80295 0.8784763 0.0106040
 5229.02852 0.8818759 0.0105926
 5234.25409 0.8748269 0.0105735
 5239.49451 0.8762761 0.0105648
 5244.73505 0.8832761 0.0105516
 5249.97548 0.8899559 0.0105366
 5255.23054 0.8877815 0.0105316
 5260.48594 0.8893692 0.0104588
 5265.74145 0.8855394 0.0105193
 5271.01182 0.8903399 0.0105064
 5276.28220 0.8909853 0.0105116
 5281.56743 0.8928847 0.0104494
 5286.83780 0.8891646 0.0104622
 5292.12315 0.8831926 0.0105261
 5297.42301 0.8783464 0.0104966
 5302.72333 0.8797188 0.0104066
 5308.02353 0.8778958 0.0103821
 5313.32385 0.8832656 0.0103421
 5318.63903 0.8778124 0.0102964
 5323.95387 0.8757748 0.0102566
 5329.28402 0.8751473 0.0102014
 5334.61417 0.8711115 0.0101339
 5339.95884 0.8703923 0.0100570
 5345.28899 0.8729051 0.0099224
 5350.63412 0.8706656 0.0098563
 5355.99376 0.8664802 0.0098759
 5361.33888 0.8663723 0.0098422
 5366.69887 0.8712712 0.0098115
 5372.07348 0.8766624 0.0097322
 5377.44855 0.8763621 0.0097334
 5382.82351 0.8754494 0.0097333
 5388.21310 0.8770577 0.0097935
 5393.58806 0.8783342 0.0097804
 5398.99250 0.8836931 0.0096947
 5404.38243 0.8872024 0.0096663
 5409.78700 0.8843985 0.0096457
 5415.20676 0.8819098 0.0096362
 5420.61132 0.8734595 0.0096355
 5426.03108 0.8635886 0.0095767
 5431.46548 0.8607968 0.0096343
 5436.90021 0.8570920 0.0096227
 5442.33461 0.8529515 0.0096064
 5447.78432 0.8444927 0.0095702
 5453.21871 0.8348749 0.0095099
 5458.68305 0.8312723 0.0093763
 5464.13276 0.8301933 0.0092860
 5469.59699 0.8321627 0.0091948
 5475.07630 0.8278291 0.0091208
 5480.54087 0.8277796 0.0090580
 5486.03504 0.8240379 0.0090047
 5491.51435 0.8268344 0.0090249
 5497.00887 0.8327852 0.0089320
 5502.50304 0.8331031 0.0088926
 5508.01219 0.8396124 0.0088692
 5513.50636 0.8441358 0.0088917
 5519.03071 0.8520679 0.0088178
 5524.53985 0.8605410 0.0087833
 5530.07883 0.8680247 0.0087993
 5535.60295 0.8785989 0.0088427
 5541.14193 0.8868093 0.0088430
 5546.68136 0.8878739 0.0089050
 5552.22034 0.8859463 0.0089603
 5557.77429 0.8841746 0.0089881
 5563.34322 0.8861471 0.0089842
 5568.89717 0.8802353 0.0089523
 5574.46609 0.8727887 0.0088969
 5580.04988 0.8630864 0.0088282
 5585.61880 0.8529583 0.0087375
 5591.21756 0.8359910 0.0086310
 5596.80146 0.8270313 0.0085386
 5602.40021 0.8234236 0.0084322
 5607.99897 0.8204122 0.0083976
 5613.61270 0.8216498 0.0084061
 5619.22643 0.8217038 0.0084523
 5624.84016 0.8232604 0.0084057
 5630.46886 0.8213206 0.0084003
 5636.09757 0.8232105 0.0084130
 5641.74113 0.8272872 0.0084258
 5647.36983 0.8249069 0.0084298
 5653.02837 0.8260450 0.0084379
 5658.67205 0.8285132 0.0084469
 5664.33024 0.8367358 0.0084394
 5670.00375 0.8348645 0.0084333
 5675.67726 0.8385631 0.0084392
 5681.35077 0.8435164 0.0084648
 5687.02427 0.8450573 0.0084960
 5692.71230 0.8497618 0.0085225
 5698.41576 0.8516349 0.0085358
 5704.10424 0.8597287 0.0085423
 5709.80758 0.8694983 0.0085467
 5715.52555 0.8848495 0.0085435
 5721.24398 0.8916454 0.0085494
 5726.96230 0.9074455 0.0085430
 5732.68027 0.9167524 0.0085497
 5738.41355 0.9260044 0.0085728
 5744.16182 0.9367808 0.0086195
 5749.90962 0.9473007 0.0086760
 5755.65788 0.9523218 0.0086734
 5761.40580 0.9654741 0.0087176
 5767.16892 0.9731938 0.0087596
 5772.93170 0.9857283 0.0087746
 5778.70991 0.9880467 0.0087756
 5784.48766 1.0026909 0.0087578
 5790.28072 1.0114841 0.0087320
 5796.05847 1.0217798 0.0086906
 5801.86651 1.0368996 0.0086473
 5807.65912 1.0532376 0.0086059
 5813.46716 1.0720924 0.0085258
 5819.28983 1.0906922 0.0084783
 5825.11273 1.1097730 0.0084577
 5830.93529 1.1267292 0.0084617
 5836.75796 1.1497504 0.0084537
 5842.59583 1.1690836 0.0084563
 5848.44834 1.1915032 0.0084726
 5854.28587 1.2130702 0.0084964
 5860.15368 1.2341776 0.0084735
 5866.00607 1.2531937 0.0085942
 5871.87355 1.2666634 0.0088252
 5877.74137 1.2724150 0.0087296
 5883.62370 1.2809281 0.0085423
 5889.50604 1.2887191 0.0085838
 5895.40335 1.2944838 0.0086949
 5901.28614 1.2987677 0.0088788
 5907.19842 1.2984618 0.0090728
 5913.09573 1.2962061 0.0092618
 5919.00801 1.2946841 0.0094316
 5924.93515 1.2921644 0.0095686
 5930.86241 1.2814468 0.0093762
 5936.78955 1.2764498 0.0093320
 5942.73212 1.2736096 0.0091500
 5948.67423 1.2721125 0.0089366
 5954.61635 1.2705317 0.0087194
 5960.57355 1.2629342 0.0084705
 5966.53064 1.2654603 0.0083247
 5972.50258 1.2615517 0.0082627
 5978.47464 1.2599617 0.0085130
 5984.44671 1.2494905 0.0086286
 5990.43374 1.2446381 0.0083276
 5996.42066 1.2387969 0.0082064
 6002.42267 1.2336771 0.0081927
 6008.42456 1.2258463 0.0081799
 6014.44108 1.2143166 0.0081174
 6020.44298 1.2087942 0.0081545
 6026.47482 1.2019503 0.0081479
 6032.50665 1.2001650 0.0081384
 6038.53838 1.1987848 0.0080773
 6044.57022 1.1917263 0.0080672
 6050.61669 1.1877970 0.0081014
 6056.66339 1.1825687 0.0080879
 6062.72517 1.1744616 0.0080378
 6068.78685 1.1739382 0.0080272
 6074.84852 1.1689551 0.0080156
 6080.92482 1.1623791 0.0080581
 6087.01644 1.1532754 0.0080125
 6093.09308 1.1456017 0.0080192
 6099.19922 1.1410228 0.0080231
 6105.29084 1.1351532 0.0079721
 6111.39743 1.1276516 0.0080123
 6117.50391 1.1197927 0.0079988
 6123.62467 1.1125593 0.0079350
 6129.74612 1.1056191 0.0079212
 6135.88300 1.0976404 0.0079615
 6142.01909 1.0920469 0.0079104
 6148.15505 1.0903490 0.0078971
 6154.30645 1.0816303 0.0078869
 6160.45785 1.0704284 0.0078857
 6166.62376 1.0680951 0.0078798
 6172.78979 1.0600719 0.0078777
 6178.95570 1.0567319 0.0078333
 6185.13705 1.0533210 0.0078679
 6191.33279 1.0458817 0.0078482
 6197.51414 1.0375681 0.0077906
 6203.72531 1.0380276 0.0077825
 6209.92106 1.0340648 0.0078233
 6216.13223 1.0349891 0.0077789
 6222.34272 1.0304698 0.0077806
 6228.56842 1.0277759 0.0078322
 6234.79491 1.0273997 0.0077950
 6241.03523 1.0274136 0.0077998
 6247.27624 1.0272279 0.0078078
 6253.53188 1.0306388 0.0078155
 6259.77289 1.0316588 0.0078251
 6266.04316 1.0326703 0.0077911
 6272.29868 1.0278841 0.0078478
 6278.56964 1.0267090 0.0078188
 6284.85522 1.0264910 0.0078307
 6291.14069 1.0208734 0.0078988
 6297.42617 1.0217257 0.0078680
 6303.72707 1.0224551 0.0078718
 6310.02717 1.0188304 0.0078828
 6316.34259 1.0179375 0.0078803
 6322.65789 1.0166063 0.0078721
 6328.98862 1.0190858 0.0078543
 6335.31867 1.0188767 0.0077954
 6341.64929 1.0166312 0.0078229
 6347.99466 1.0262548 0.0078133
 6354.33991 1.0291595 0.0077665
 6360.69979 1.0332375 0.0078077
 6367.06035 1.0346593 0.0077630
 6373.42024 1.0414304 0.0078128
 6379.79543 1.0365939 0.0077769
 6386.17063 1.0376489 0.0077757
 6392.56114 1.0393050 0.0077650
 6398.95085 1.0403905 0.0077515
 6405.35600 1.0324389 0.0077315
 6411.76103 1.0317527 0.0077119
 6418.16606 1.0325913 0.0076568
 6424.58572 1.0316186 0.0076658
 6431.02069 1.0257794 0.0075978
 6437.44104 1.0229274 0.0076336
 6443.89064 1.0301926 0.0075927
 6450.32562 1.0357347 0.0076497
 6456.77511 1.0363331 0.0076334
 6463.24003 1.0396912 0.0076518
 6469.70484 1.0469151 0.0076711
 6476.16965 1.0489953 0.0076836
 6482.64909 1.0555210 0.0076910
 6489.12853 1.0566899 0.0076454
 6495.62328 1.0596821 0.0076845
 6502.11803 1.0575157 0.0076381
 6508.61279 1.0616844 0.0076669
 6515.12206 1.0695368 0.0076098
 6521.64676 1.0692827 0.0076384
 6528.15603 1.0659977 0.0075940
 6534.69525 1.0762492 0.0075931
 6541.21984 1.0785507 0.0076063
 6547.75905 1.0822012 0.0075934
 6554.31359 1.0871744 0.0075795
 6560.86812 1.0927565 0.0075692
 6567.43717 1.1018354 0.0075165
 6573.99170 1.1072094 0.0075532
 6580.57538 1.1197232 0.0075096
 6587.15975 1.1319703 0.0075465
 6593.74423 1.1398785 0.0075015
 6600.32791 1.1546798 0.0075001
 6606.94222 1.1602943 0.0075005
 6613.54122 1.1666127 0.0075060
 6620.15542 1.1813025 0.0075135
 6626.78436 1.1900157 0.0075172
 6633.39867 1.2024333 0.0075230
 6640.04213 1.2117367 0.0074892
 6646.67096 1.2177680 0.0075369
 6653.32973 1.2314568 0.0075051
 6659.97388 1.2437311 0.0075159
 6666.64797 1.2517328 0.0075695
 6673.30674 1.2612085 0.0075455
 6679.98015 1.2771655 0.0075588
 6686.66876 1.2866830 0.0075717
 6693.34285 1.3036354 0.0075927
 6700.04609 1.3201587 0.0076187
 6706.73469 1.3381664 0.0076360
 6713.45325 1.3511488 0.0076592
 6720.15729 1.3655142 0.0076409
 6726.87584 1.3836559 0.0076679
 6733.60891 1.3929191 0.0076928
 6740.34278 1.4169343 0.0076369
 6747.09117 1.4342316 0.0076623
 6753.82435 1.4410212 0.0077413
 6760.58805 1.4571989 0.0077484
 6767.35107 1.4671021 0.0078108
 6774.11477 1.4781338 0.0078754
 6780.89242 1.4934970 0.0079140
 6787.67075 1.4962407 0.0079528
 6794.46440 1.4999917 0.0079759
 6801.25725 1.5005018 0.0079380
 6808.05090 1.5016984 0.0079137
 6814.85838 1.4957461 0.0079153
 6821.68198 1.4909197 0.0078433
 6828.50477 1.4799128 0.0078087
 6835.32825 1.4759811 0.0077705
 6842.16556 1.4708906 0.0077182
 6849.00368 1.4675063 0.0077708
 6855.85710 1.4598048 0.0077995
 6862.70985 1.4516566 0.0077378
 6869.57779 1.4456314 0.0077183
 6876.44505 1.4270819 0.0077253
 6883.32831 1.4194745 0.0077730
 6890.21088 1.4184511 0.0077373
 6897.09346 1.4113914 0.0077508
 6903.99135 1.4037799 0.0077707
 6910.90387 1.3998812 0.0077886
 6917.81708 1.3902260 0.0077640
 6924.72948 1.3766317 0.0077864
 6931.65732 1.3613315 0.0078503
 6938.58436 1.3485255 0.0078605
 6945.52671 1.3348005 0.0078684
 6952.46975 1.3206125 0.0078416
 6959.42662 1.3065184 0.0078523
 6966.38429 1.2946299 0.0078512
 6973.35659 1.2821543 0.0078489
 6980.31426 1.2720401 0.0078055
 6987.30107 1.2583330 0.0078040
 6994.28858 1.2447277 0.0078423
 7001.29071 1.2337848 0.0078387
 7008.29284 1.2239006 0.0078384
 7015.29497 1.2216254 0.0078323
 7022.31242 1.2188910 0.0077859
 7029.32987 1.2137203 0.0077844
 7036.36184 1.2074668 0.0077816
 7043.39391 1.1991457 0.0077769
 7050.44051 1.1939923 0.0077731
 7057.50242 1.1867800 0.0077738
 7064.54970 1.1825947 0.0077792
 7071.61161 1.1774018 0.0077430
 7078.68884 1.1743122 0.0077494
 7085.76538 1.1695482 0.0077630
 7092.85712 1.1656879 0.0077818
 7099.94898 1.1583489 0.0078053
 7107.05604 1.1660473 0.0078299
 7114.14779 1.1664714 0.0078615
 7121.26948 1.1639632 0.0078908
 7128.39048 1.1662470 0.0079184
 7135.52749 1.1687781 0.0079048
 7142.66369 1.1755778 0.0079399
 7149.80070 1.1773750 0.0079698
 7156.95234 1.1775645 0.0080027
 7164.10386 1.1710491 0.0080406
 7171.27001 1.1659586 0.0080842
 7178.43616 1.1631685 0.0081959
 7185.61763 1.1629437 0.0084686
 7192.81442 1.1633112 0.0087928
 7200.01052 1.1688536 0.0086541
 7207.20650 1.1681466 0.0084911
 7214.40329 1.1733178 0.0087702
 7221.62922 1.1744601 0.0090719
 7228.84063 1.1787910 0.0092495
 7236.06657 1.1788528 0.0097037
 7243.30781 1.1859288 0.0103176
 7250.54906 1.1798195 0.0110309
 7257.80483 1.1880763 0.0117517
 7265.06070 1.1922815 0.0127200
 7272.33179 1.1928138 0.0129848
 7279.60298 1.1939857 0.0128543
 7286.87406 1.1872956 0.0124368
 7294.17440 1.1810580 0.0119002
 7301.46080 1.1773545 0.0113333
 7308.76114 1.1772041 0.0108458
 7316.07748 1.1695389 0.0106198
 7323.39302 1.1664011 0.0110196
 7330.70868 1.1641721 0.0107446
 7338.05417 1.1617904 0.0107334
 7345.38503 1.1592913 0.0100786
 7352.73052 1.1566693 0.0101791
 7360.09132 1.1578496 0.0102919
 7367.43681 1.1541517 0.0103836
 7374.81225 1.1476303 0.0106098
 7382.18757 1.1271271 0.0108332
 7389.56301 1.1219336 0.0110027
 7396.95365 1.1199636 0.0113466
 7404.35891 1.1112262 0.0119319
 7411.76418 1.1091254 0.0120046
 7419.16945 1.0974299 0.0107606
 7426.59004 1.1072996 0.0105686
