# SOURCE  = 'Quimby et al. 2018' /                                                
# OBJECT  = '2011ke  '           /                                                
# Z       = 0.142900 / wavelengths in OBSERVER FRAME (from rest frame x (1+z))
# NORM    =             0.207769 / fluxes divided by norm                         
# CLIPPED =                    1 / galaxy emission lines removed                  
# SMOOTHED=                    1 / spectrum has been smoothed                     
# COLUMN01= 'Wavelength (Angstrom)' /                                             
# COLUMN02= 'Flux Density (erg/s/cm2/A)' /                                        
# COLUMN03= 'Flux Density Uncertainty (erg/s/cm2/A)' /                            
# END                                                                             
# 
# 
# 
# 
# 
# 
# 
# 
# 
# 
 3973.4440  2.7198091  0.1473949
 3977.4150  2.6561174  0.1222919
 3981.3990  2.6236968  0.0994030
 3985.3831  2.6060038  0.0911255
 3989.3668  2.5964339  0.0767849
 3993.3508  2.6003714  0.0716596
 3997.3479  2.6242838  0.0629126
 4001.3450  2.6358478  0.0596904
 4005.3422  2.6549222  0.0544370
 4009.3520  2.6731431  0.0523151
 4013.3622  2.7056508  0.0492500
 4017.3724  2.7171717  0.0466179
 4021.3953  2.7377090  0.0453042
 4025.4186  2.7535036  0.0435707
 4029.4419  2.7518084  0.0425361
 4033.4648  2.7465332  0.0413332
 4037.5011  2.7451096  0.0404657
 4041.5375  2.7429729  0.0396021
 4045.5866  2.7418799  0.0388392
 4049.6229  2.7336707  0.0378647
 4053.6723  2.7198567  0.0373482
 4057.7345  2.7316256  0.0368429
 4061.7970  2.7485950  0.0363488
 4065.8461  2.7341561  0.0360834
 4069.9216  2.7240739  0.0356083
 4073.9838  2.7129450  0.0351444
 4078.0593  2.7032721  0.0346914
 4082.1346  2.7193258  0.0337951
 4086.2232  2.7116680  0.0333498
 4090.3115  2.7015767  0.0329155
 4094.4002  2.6978731  0.0324920
 4098.4885  2.6803517  0.0322580
 4102.5902  2.6625023  0.0318336
 4106.6916  2.6479313  0.0314202
 4110.8064  2.6426427  0.0310175
 4114.9078  2.6474240  0.0302749
 4119.0222  2.6377857  0.0298797
 4123.1501  2.6404598  0.0294952
 4127.2646  2.6337006  0.0293221
 4131.3924  2.6258502  0.0289564
 4135.5330  2.6288478  0.0286014
 4139.6606  2.6198702  0.0282569
 4143.8015  2.6071973  0.0280811
 4147.9552  2.5862274  0.0272414
 4152.0958  2.5782678  0.0269140
 4156.2495  2.5702255  0.0265969
 4160.4035  2.5541279  0.0264581
 4164.5703  2.5426192  0.0261405
 4168.7371  2.5293846  0.0258333
 4172.9038  2.5139101  0.0257385
 4177.0709  2.5139482  0.0249857
 4181.2508  2.5080926  0.0246951
 4185.4306  2.5051405  0.0244145
 4189.6235  2.4964099  0.0243401
 4193.8034  2.4891803  0.0240784
 4197.9966  2.4859924  0.0238268
 4202.2026  2.4712145  0.0233306
 4206.3955  2.4740849  0.0230844
 4210.6146  2.4743886  0.0228481
 4214.8206  2.4719925  0.0228087
 4219.0396  2.4688540  0.0225716
 4223.2587  2.4643600  0.0223446
 4227.4778  2.4600110  0.0225954
 4231.7099  2.4528239  0.0230470
 4235.9420  2.4478984  0.0232919
 4240.1742  2.4476979  0.0239043
 4244.4194  2.4353187  0.0219711
 4248.6646  2.4203484  0.0214312
 4252.9098  2.4118383  0.0213068
 4257.1550  2.4016130  0.0211925
 4261.4133  2.4056787  0.0214101
 4265.6847  2.4091427  0.0216741
 4269.9430  2.4005053  0.0221736
 4274.2144  2.3951087  0.0225073
 4278.4857  2.4073675  0.0228334
 4282.7702  2.4213295  0.0229498
 4287.0546  2.4232025  0.0231175
 4291.3391  2.4278934  0.0232184
 4295.6366  2.4405153  0.0234634
 4299.9207  2.4617560  0.0230409
 4304.2313  2.4796555  0.0225578
 4308.5288  2.4930511  0.0219315
 4312.8394  2.4922354  0.0213254
 4317.1500  2.4966936  0.0207284
 4321.4733  2.5194120  0.0203884
 4325.7970  2.5362151  0.0198403
 4330.1207  2.5452862  0.0191450
 4334.4443  2.5427530  0.0190606
 4338.7807  2.5415037  0.0188998
 4343.1175  2.5342908  0.0190750
 4347.4673  2.5194607  0.0201893
 4351.8171  2.5145106  0.0197164
 4356.1666  2.5063326  0.0189727
 4360.5164  2.5014851  0.0185659
 4364.8793  2.4861717  0.0185162
 4369.2419  2.4862080  0.0184768
 4373.6179  2.4942267  0.0186858
 4377.9935  2.4995811  0.0183615
 4382.3695  2.4961712  0.0186163
 4386.7454  2.4912562  0.0185699
 4391.1342  2.4917543  0.0185346
 4395.5232  2.4879923  0.0188132
 4399.9250  2.4629412  0.0185069
 4404.3271  2.4565594  0.0184791
 4408.7289  2.4612334  0.0187708
 4413.1441  2.4524090  0.0187664
 4417.5590  2.4405417  0.0187735
 4421.9742  2.4392602  0.0187766
 4426.3890  2.4544287  0.0187790
 4430.8173  2.4651289  0.0191143
 4435.2453  2.4593327  0.0191084
 4439.6863  2.4575481  0.0191152
 4444.1276  2.4582200  0.0191974
 4448.5686  2.4637458  0.0191968
 4453.0231  2.4679461  0.0195723
 4457.4641  2.4672885  0.0195988
 4461.9312  2.4705107  0.0196388
 4466.3857  2.4800920  0.0197107
 4470.8528  2.4920464  0.0197420
 4475.3331  2.5005858  0.0197870
 4479.8006  2.5110345  0.0201876
 4484.2808  2.5130687  0.0202216
 4488.7611  2.5148299  0.0203686
 4493.2544  2.5071881  0.0203903
 4497.7480  2.4901190  0.0204278
 4502.2544  2.4815953  0.0209124
 4506.7477  2.4819963  0.0206200
 4511.2541  2.4749832  0.0210980
 4515.7736  2.4768333  0.0211559
 4520.2803  2.4742787  0.0212308
 4524.7998  2.4731784  0.0217041
 4529.3323  2.4864981  0.0214214
 4533.8649  2.4960413  0.0219467
 4538.3974  2.5070479  0.0219888
 4542.9300  2.5246150  0.0217049
 4547.4756  2.5113478  0.0222454
 4552.0212  2.5093558  0.0222887
 4556.5802  2.5177572  0.0220024
 4561.1389  2.5110226  0.0220847
 4565.6976  2.5111022  0.0225996
 4570.2563  2.5159140  0.0223102
 4574.8281  2.5114429  0.0223942
 4579.3999  2.5020018  0.0229178
 4583.9847  2.4832647  0.0226243
 4588.5696  2.4719286  0.0227099
 4593.1544  2.4650936  0.0228738
 4597.7520  2.4663956  0.0229411
 4602.3499  2.4602089  0.0230279
 4606.9479  2.4629450  0.0231891
 4611.5589  2.4828832  0.0232570
 4616.1699  2.5042434  0.0233448
 4620.7939  2.5169766  0.0234998
 4625.4049  2.5472331  0.0235681
 4630.0290  2.5545094  0.0236569
 4634.6658  2.5415289  0.0238025
 4639.3030  2.5563188  0.0238712
 4643.9401  2.5660703  0.0239608
 4648.5773  2.5663295  0.0240937
 4653.2275  2.5720813  0.0241627
 4657.8774  2.5524342  0.0238158
 4662.5407  2.5235286  0.0243700
 4667.2040  2.5019629  0.0244391
 4671.8800  2.4946551  0.0240715
 4676.5433  2.4698844  0.0246280
 4681.2197  2.4516299  0.0246976
 4685.9088  2.4394169  0.0248175
 4690.5852  2.4170570  0.0248648
 4695.2746  2.3967254  0.0244928
 4699.9768  2.3802981  0.0250303
 4704.6794  2.3638465  0.0250779
 4709.3819  2.3426147  0.0246795
 4714.0972  2.3363886  0.0252175
 4718.7997  2.3169737  0.0248362
 4723.5280  2.3095663  0.0248403
 4728.2436  2.3067882  0.0253790
 4732.9720  2.2921822  0.0249700
 4737.7137  2.2862797  0.0249758
 4742.4421  2.2796223  0.0255161
 4747.1838  2.2617583  0.0250788
 4751.9383  2.2533975  0.0255973
 4756.6931  2.2606835  0.0251761
 4761.4476  2.2685106  0.0251642
 4766.2155  2.2648213  0.0256854
 4770.9700  2.2590184  0.0261729
 4775.7507  2.2542317  0.0271475
 4780.5186  2.2378049  0.0286965
 4785.2992  2.2206254  0.0262390
 4790.0930  2.2182908  0.0258491
 4794.8739  2.2040401  0.0267103
 4799.6807  2.1862073  0.0277733
 4804.4745  2.1787546  0.0289618
 4809.2816  2.1746657  0.0301059
 4814.0884  2.1760471  0.0320349
 4818.9083  2.1550572  0.0342712
 4823.7151  2.1369314  0.0367102
 4828.5483  2.1197259  0.0352454
 4833.3682  2.1271746  0.0312434
 4838.2142  2.1196511  0.0301704
 4843.0472  2.1017880  0.0303815
 4847.8932  2.1227684  0.0300928
 4852.7396  2.1332591  0.0307287
 4857.5856  2.1283703  0.0315602
 4862.4447  2.1549346  0.0404004
 4867.3169  2.1441405  0.0372071
 4872.1760  2.1218274  0.0330375
 4877.0482  2.1109798  0.0304449
 4881.9334  2.1000338  0.0287625
 4886.8056  2.0783119  0.0280360
 4891.7039  2.0690696  0.0268794
 4896.5892  2.0592072  0.0256456
 4901.4875  2.0628452  0.0253474
 4906.3858  2.0644548  0.0254287
 4911.2972  2.0444882  0.0276047
 4916.2086  2.0280774  0.0260670
 4921.1200  2.0196767  0.0251310
 4926.0445  2.0157392  0.0241635
 4930.9690  2.0070207  0.0241188
 4935.9065  1.9965098  0.0244676
 4940.8310  2.0093310  0.0239924
 4945.7816  2.0082512  0.0243463
 4950.7192  2.0092962  0.0238605
 4955.6695  2.0152948  0.0238234
 4960.6332  1.9913652  0.0237233
 4965.5969  1.9898731  0.0236765
 4970.5606  1.9836349  0.0235807
 4975.5243  1.9855314  0.0235247
 4980.5007  1.9967256  0.0234328
 4985.4906  2.0062132  0.0233682
 4990.4674  2.0155172  0.0228857
 4995.4572  2.0337894  0.0232069
 5000.4598  2.0384014  0.0231642
 5005.4628  2.0413585  0.0230410
 5010.4657  2.0472944  0.0229909
 5015.4683  2.0683732  0.0228707
 5020.4843  2.0734298  0.0228138
 5025.5134  2.0735099  0.0226961
 5030.5421  2.0695541  0.0226328
 5035.5712  2.0669641  0.0221412
 5040.6000  2.0642684  0.0224482
 5045.6421  2.0526693  0.0219623
 5050.6839  2.0355279  0.0222602
 5055.7392  2.0265465  0.0217796
 5060.7941  2.0292354  0.0220690
 5065.8624  2.0332036  0.0215935
 5070.9173  2.0365946  0.0218748
 5075.9987  2.0585687  0.0214040
 5081.0666  2.0733743  0.0216778
 5086.1480  2.0910156  0.0212115
 5091.2422  2.1060967  0.0214784
 5096.3366  2.1208730  0.0210163
 5101.4307  2.1337273  0.0209266
 5106.5249  2.1449389  0.0208187
 5111.6324  2.1413250  0.0207269
 5116.7527  2.1288905  0.0206189
 5121.8599  2.1124513  0.0205257
 5126.9936  2.0930653  0.0204174
 5132.1138  2.0686388  0.0203232
 5137.2472  2.0443201  0.0202145
 5142.3809  2.0232627  0.0201197
 5147.5273  1.9960581  0.0200104
 5152.6737  1.9771200  0.0199156
 5157.8332  1.9675751  0.0198056
 5162.9800  1.9498218  0.0197113
 5168.1526  1.9173142  0.0196005
 5173.3121  1.9067928  0.0195071
 5178.4847  1.8984244  0.0193954
 5183.6703  1.8846768  0.0193034
 5188.8560  1.8674752  0.0191908
 5194.0416  1.8643616  0.0187763
 5199.2407  1.8644141  0.0189871
 5204.4394  1.8612611  0.0185784
 5209.6381  1.8600640  0.0187847
 5214.8500  1.8673769  0.0183822
 5220.0618  1.8633908  0.0185840
 5225.2866  1.8616436  0.0181883
 5230.5115  1.8422272  0.0183856
 5235.7364  1.8388681  0.0179970
 5240.9744  1.8307554  0.0181897
 5246.2123  1.8129739  0.0178088
 5251.4634  1.8144569  0.0179971
 5256.7144  1.8233778  0.0176241
 5261.9782  1.8190122  0.0175061
 5267.2292  1.8173943  0.0174434
 5272.5064  1.8223250  0.0173247
 5277.7836  1.8245302  0.0172671
 5283.0607  1.8214115  0.0171479
 5288.3379  1.8253645  0.0170958
 5293.6279  1.8417411  0.0169760
 5298.9181  1.8606977  0.0171680
 5304.2215  1.8634183  0.0168096
 5309.5248  1.8609143  0.0167110
 5314.8281  1.8611907  0.0166491
 5320.1442  1.8623888  0.0165499
 5325.4737  1.8542140  0.0164950
 5330.7901  1.8382792  0.0163954
 5336.1323  1.8354809  0.0163479
 5341.4618  1.8298677  0.0162479
 5346.8044  1.8290534  0.0159197
 5352.1469  1.8330398  0.0161079
 5357.5019  1.8233007  0.0157808
 5362.8575  1.8229618  0.0159759
 5368.2266  1.8279978  0.0158957
 5373.5950  1.8115053  0.0158525
 5378.9633  1.8032457  0.0157719
 5384.3451  1.7790782  0.0154658
 5389.7269  1.7645706  0.0156571
 5395.1214  1.7502974  0.0153516
 5400.5160  1.7378767  0.0155514
 5405.9105  1.7174940  0.0152461
 5411.3185  1.6931697  0.0152018
 5416.7391  1.6861868  0.0153922
 5422.1471  1.6752687  0.0151044
 5427.5812  1.6581317  0.0153043
 5433.0018  1.6461533  0.0150159
 5438.4359  1.6388344  0.0149866
 5443.8694  1.6304603  0.0149363
 5449.3162  1.6162961  0.0149054
 5454.7637  1.6030430  0.0151074
 5460.2233  1.5962139  0.0150966
 5465.6835  1.6045547  0.0156375
 5471.1565  1.5994444  0.0159869
 5476.6167  1.5861784  0.0151220
 5482.1025  1.5826017  0.0150749
 5487.5754  1.5711251  0.0151366
 5493.0618  1.5719606  0.0155845
 5498.5610  1.5714352  0.0161106
 5504.0601  1.5823414  0.0167023
 5509.5592  1.5877168  0.0172243
 5515.0718  1.6029686  0.0176119
 5520.5837  1.6020617  0.0178488
 5526.1090  1.5987285  0.0174998
 5531.6342  1.5975170  0.0170393
 5537.1729  1.5907601  0.0161922
 5542.7110  1.5860755  0.0158685
 5548.2496  1.5803434  0.0151264
 5553.8011  1.5707746  0.0148552
 5559.3525  1.5621054  0.0147371
 5564.9167  1.5554839  0.0148186
 5570.4815  1.5472300  0.0158207
 5576.0457  1.5329005  0.0151135
 5581.6233  1.5288262  0.0145476
 5587.2009  1.5231327  0.0145106
 5592.7919  1.5229443  0.0142985
 5598.3822  1.5207675  0.0143039
 5603.9860  1.5130191  0.0145278
 5609.5897  1.5060508  0.0143137
 5615.1934  1.4982384  0.0143260
 5620.8099  1.4999471  0.0143324
 5626.4398  1.5005164  0.0143401
 5632.0569  1.4954432  0.0143585
 5637.6996  1.4994665  0.0143633
 5643.3295  1.4977041  0.0143767
 5648.9721  1.4962866  0.0144005
 5654.6282  1.5023450  0.0144040
 5660.2842  1.5158119  0.0144225
 5665.9402  1.5130345  0.0142188
 5671.6090  1.5213304  0.0144538
 5677.2778  1.5244896  0.0144765
 5682.9600  1.5244755  0.0142749
 5688.6422  1.5325494  0.0145114
 5694.3244  1.5371172  0.0145378
 5700.0193  1.5331651  0.0143377
 5705.7277  1.5287879  0.0145762
 5711.4226  1.5232846  0.0146055
 5717.1437  1.5155950  0.0144063
 5722.8520  1.5201633  0.0146473
 5728.5731  1.5327303  0.0146788
 5734.3076  1.5267578  0.0144797
 5740.0421  1.5076897  0.0147239
 5745.7893  1.5095068  0.0147569
 5751.5238  1.5011805  0.0145574
 5757.2838  1.4953233  0.0148051
 5763.0444  1.5050842  0.0148390
 5768.8051  1.5076283  0.0146385
 5774.5651  1.4948504  0.0146869
 5780.3519  1.5037507  0.0149247
 5786.1253  1.4983909  0.0147223
 5791.9120  1.4959345  0.0147704
 5797.7116  1.4960594  0.0150129
 5803.4984  1.5021318  0.0148084
 5809.3107  1.5102968  0.0148555
 5815.1102  1.5193411  0.0151034
 5820.9359  1.5198706  0.0148961
 5826.7488  1.5163939  0.0149416
 5832.5879  1.5238227  0.0149938
 5838.4136  1.5170242  0.0149848
 5844.2521  1.5024875  0.0150283
 5850.1039  1.4866354  0.0150779
 5855.9430  1.4826469  0.0148783
 5861.8076  1.4729037  0.0151149
 5867.6594  1.4579149  0.0151616
 5873.5374  1.4563705  0.0149666
 5879.4027  1.4456302  0.0152014
 5885.2807  1.4369149  0.0152444
 5891.1714  1.4350437  0.0152930
 5897.0628  1.4249142  0.0150878
 5902.9669  1.4204417  0.0153260
 5908.8577  1.4278097  0.0153701
 5914.7752  1.4208380  0.0151712
 5920.6921  1.4240324  0.0152047
 5926.6096  1.4240047  0.0154453
 5932.5393  1.4192441  0.0152532
 5938.4696  1.4201095  0.0152819
 5944.4133  1.4222798  0.0153146
 5950.3563  1.4187908  0.0155564
 5956.3000  1.4185997  0.0153570
 5962.2558  1.4129428  0.0153842
 5968.2257  1.4127684  0.0154150
 5974.1949  1.4122341  0.0154301
 5980.1647  1.4072964  0.0154512
 5986.1466  1.4101185  0.0154756
 5992.1292  1.4103473  0.0155034
 5998.1252  1.4152219  0.0155156
 6004.1206  1.4142617  0.0155332
 6010.1293  1.4091637  0.0155539
 6016.1374  1.4049062  0.0155775
 6022.1595  1.3951095  0.0155878
 6028.1810  1.3780426  0.0156010
 6034.2025  1.3738186  0.0156169
 6040.2374  1.3606081  0.0156353
 6046.2851  1.3426520  0.0154205
 6052.3334  1.3350762  0.0156527
 6058.3810  1.3328099  0.0156627
 6064.4421  1.3224559  0.0156750
 6070.5025  1.3243338  0.0154546
 6076.5763  1.3175544  0.0156867
 6082.6507  1.3199027  0.0156903
 6088.7372  1.3220608  0.0156958
 6094.8244  1.3238546  0.0154698
 6100.9244  1.3274246  0.0154790
 6107.0116  1.3301961  0.0156998
 6113.1243  1.3317802  0.0156984
 6119.2376  1.3332970  0.0154667
 6125.3637  1.3262229  0.0154689
 6131.4898  1.3116962  0.0154725
 6137.6159  1.2896930  0.0156840
 6143.7554  1.2815285  0.0154469
 6149.8949  1.2615879  0.0154420
 6156.0471  1.2419542  0.0154385
 6162.1994  1.2255855  0.0154364
 6168.3644  1.2141298  0.0154357
 6174.5428  1.2103430  0.0154003
 6180.7084  1.2094193  0.0153897
 6186.8868  1.2180034  0.0153803
 6193.0786  1.2173859  0.0153722
 6199.2698  1.2121212  0.0151432
 6205.4743  1.2056013  0.0153280
 6211.6789  1.2047629  0.0153116
 6217.8968  1.1971387  0.0152964
 6224.1013  1.1951309  0.0152822
 6230.3320  1.1870171  0.0150533
 6236.5621  1.1811531  0.0150301
 6242.8062  1.1678247  0.0152103
 6249.0496  1.1511927  0.0151890
 6255.2937  1.1366311  0.0151688
 6261.5506  1.1292759  0.0149431
 6267.8074  1.1123027  0.0149144
 6274.0770  1.1080223  0.0148865
 6280.3466  1.0969645  0.0148594
 6286.6296  1.0912561  0.0150350
 6292.9260  1.0952810  0.0150096
 6299.2218  1.1091214  0.0147812
 6305.5175  1.1106445  0.0152178
 6311.8139  1.1076438  0.0157605
 6318.1358  1.1076554  0.0164642
 6324.4450  1.1091144  0.0147724
 6330.7669  1.1176659  0.0150162
 6337.1022  1.1201206  0.0152660
 6343.4375  1.1234854  0.0157371
 6349.7855  1.1246545  0.0163070
 6356.1336  1.1165231  0.0168765
 6362.4950  1.1168622  0.0173352
 6368.8565  1.1102498  0.0173478
 6375.2179  1.1014696  0.0175488
 6381.6049  1.1015016  0.0171740
 6387.9797  1.0843086  0.0166052
 6394.3667  1.0673988  0.0159526
 6400.7677  1.0548636  0.0153198
 6407.1680  1.0481157  0.0146316
 6413.5684  1.0523310  0.0142665
 6419.9949  1.0576078  0.0142316
 6426.4086  1.0522587  0.0156809
 6432.8351  1.0538630  0.0149425
 6439.2750  1.0616491  0.0143911
 6445.7015  1.0642681  0.0139457
 6452.1542  1.0704023  0.0137188
 6458.6068  1.0760591  0.0136763
 6465.0595  1.0824966  0.0136343
 6471.5255  1.0895292  0.0135926
 6478.0043  1.0838212  0.0135512
 6484.4831  1.0857106  0.0135101
 6490.9619  1.0809034  0.0134694
 6497.4541  1.0780194  0.0136065
 6503.9591  1.0734433  0.0133823
 6510.4640  1.0599898  0.0133374
 6516.9690  1.0468411  0.0132929
 6523.4867  1.0418752  0.0132487
 6530.0050  1.0414188  0.0132049
 6536.5361  1.0507762  0.0131614
 6543.0800  1.0417745  0.0131182
 6549.6245  1.0453496  0.0130754
 6556.1683  1.0531574  0.0130329
 6562.7256  1.0590434  0.0128215
 6569.2828  1.0579687  0.0127761
 6575.8529  1.0557884  0.0127310
 6582.4363  1.0526342  0.0126863
 6589.0197  1.0528163  0.0128104
 6595.6165  1.0514269  0.0127659
 6602.1999  1.0402913  0.0127219
 6608.8094  1.0441251  0.0126782
 6615.4183  1.0406805  0.0126349
 6622.0279  1.0320296  0.0125920
 6628.6508  1.0316405  0.0123967
 6635.2859  1.0294544  0.0123520
 6641.9216  1.0226785  0.0123079
 6648.5573  1.0245425  0.0122642
 6655.2057  1.0260980  0.0122210
 6661.8676  1.0282333  0.0121783
 6668.5294  1.0300043  0.0121361
 6675.1913  1.0344841  0.0120943
 6681.8659  1.0380675  0.0120531
 6688.5539  1.0366446  0.0120124
 6695.2419  1.0305690  0.0119723
 6701.9427  1.0297949  0.0119327
 6708.6434  1.0323983  0.0118936
 6715.3442  1.0332695  0.0117077
 6722.0717  1.0366094  0.0116701
 6728.7852  1.0364780  0.0116330
 6735.5128  1.0441734  0.0115965
 6742.2525  1.0426626  0.0115605
 6748.9928  1.0318538  0.0115251
 6755.7458  1.0310357  0.0114903
 6762.4989  1.0334041  0.0114560
 6769.2653  1.0294904  0.0114223
 6776.0311  1.0330682  0.0113891
 6782.8110  1.0359776  0.0113564
 6789.5902  1.0412641  0.0113243
 6796.3821  1.0423918  0.0112927
 6803.1748  1.0322315  0.0112616
 6809.9801  1.0282310  0.0112310
 6816.7989  1.0284007  0.0112008
 6823.6042  1.0224921  0.0111712
 6830.4357  1.0242825  0.0111420
 6837.2672  1.0134341  0.0111132
 6844.0987  1.0080123  0.0110849
 6850.9430  1.0014204  0.0110571
 6857.8007  0.9977922  0.0110297
 6864.6583  0.9913881  0.0110027
 6871.5160  0.9820453  0.0109761
 6878.3870  0.9715320  0.0109499
 6885.2708  0.9642901  0.0109242
 6892.1546  0.9639598  0.0108988
 6899.0512  0.9536496  0.0108738
 6905.9484  0.9482383  0.0108493
 6912.8577  0.9460151  0.0108251
 6919.7677  0.9389956  0.0108012
 6926.6910  0.9370663  0.0107778
 6933.6137  0.9337632  0.0107548
 6940.5498  0.9351608  0.0107321
 6947.4860  0.9375858  0.0107098
 6954.4348  0.9354550  0.0106878
 6961.3971  0.9390348  0.0106663
 6968.3593  0.9354651  0.0106451
 6975.3216  0.9374923  0.0106242
 6982.2966  0.9380939  0.0106038
 6989.2850  0.9410776  0.0105837
 6996.2734  0.9414818  0.0105639
 7003.2746  0.9428197  0.0105446
 7010.2630  0.9433740  0.0103981
 7017.2775  0.9332595  0.0103798
 7024.3049  0.9208944  0.0103619
 7031.3194  0.9109447  0.0103444
 7038.3595  0.9038549  0.0103272
 7045.3874  0.8956109  0.0103104
 7052.4409  0.8891351  0.0102939
 7059.4944  0.8877237  0.0102779
 7066.5478  0.8846532  0.0102622
 7073.6147  0.8845205  0.0102469
 7080.6943  0.8806633  0.0102321
 7087.7739  0.8832537  0.0102176
