% File created by shivutils (I.Shivvers)
% wl(A)   flm    er(optional)
3596.00   5.50163460   0.16485570
3598.00   5.59014225   0.16583675
3600.00   5.40639257   0.16334531
3602.00   5.57801533   0.16211347
3604.00   5.45983982   0.16057622
3606.00   5.38846016   0.16194442
3608.00   5.32452345   0.16034448
3610.00   5.55973387   0.16322657
3612.00   5.63000345   0.16577913
3614.00   5.55747223   0.16486287
3616.00   5.66725206   0.16225091
3618.00   5.41758871   0.16030304
3620.00   5.62330580   0.16253664
3622.00   5.68691921   0.16337377
3624.00   5.55522394   0.16241504
3626.00   5.55626392   0.15922163
3628.00   5.73777723   0.16094385
3630.00   5.55659771   0.16054794
3632.00   5.72131777   0.16120684
3634.00   5.72076559   0.16093485
3636.00   5.44676256   0.15834354
3638.00   5.67195082   0.15788032
3640.00   5.58013773   0.16057421
3642.00   5.61638689   0.15990752
3644.00   5.74204063   0.16046035
3646.00   5.76975489   0.16354647
3648.00   5.72365761   0.17221299
3650.00   5.62850475   0.17070340
3652.00   5.66522074   0.16683182
3654.00   5.77515888   0.16382913
3656.00   5.70615625   0.15795849
3658.00   5.68067217   0.15525913
3660.00   5.84508944   0.15744476
3662.00   5.61526775   0.15711102
3664.00   5.56408739   0.15293778
3666.00   5.56240940   0.14946733
3668.00   5.67997503   0.14836307
3670.00   5.55451632   0.14725335
3672.00   5.58919048   0.14728636
3674.00   5.40624475   0.14494984
3676.00   5.58651447   0.14552048
3678.00   5.45232391   0.14294916
3680.00   5.50530910   0.14344199
3682.00   5.57845974   0.14380993
3684.00   5.75567865   0.14423759
3686.00   5.65104294   0.14007491
3688.00   5.55908680   0.14261083
3690.00   5.57318830   0.14310536
3692.00   5.61602783   0.14334232
3694.00   5.60106039   0.14204225
3696.00   5.69010782   0.14027736
3698.00   5.50084686   0.14175886
3700.00   5.59496164   0.14134686
3702.00   5.46584272   0.13951041
3704.00   5.59164476   0.13832869
3706.00   5.52812862   0.13701549
3708.00   5.37426853   0.13517031
3710.00   5.39925098   0.13589120
3712.00   5.47367764   0.13323425
3714.00   5.52496672   0.13314031
3716.00   5.42352915   0.13464160
3718.00   5.48367167   0.13283035
3720.00   5.28009415   0.12871118
3722.00   5.40866709   0.13086918
3724.00   5.35852814   0.13115326
3726.00   5.33285952   0.13080372
3728.00   5.34256124   0.12979768
3730.00   5.25297689   0.12748714
3732.00   5.31409502   0.12718289
3734.00   5.22730732   0.12475634
3736.00   5.30149651   0.12586875
3738.00   5.28169060   0.12703922
3740.00   5.31554985   0.12360440
3742.00   5.43143320   0.12671126
3744.00   5.17364645   0.12274625
3746.00   5.17106724   0.12214877
3748.00   5.16484022   0.12147900
3750.00   5.13107538   0.12163828
3752.00   5.16245413   0.12288546
3754.00   5.20991755   0.12348783
3756.00   4.97168159   0.12011184
3758.00   5.26164436   0.12175873
3760.00   5.27652311   0.12146622
3762.00   5.28463221   0.12092297
3764.00   5.29740572   0.12064200
3766.00   5.14666986   0.11896674
3768.00   5.19503021   0.11940607
3770.00   5.23929596   0.13044912
3772.00   5.36429310   0.11926632
3774.00   5.15120459   0.11880180
3776.00   5.16048670   0.11826923
3778.00   5.11454487   0.11765627
3780.00   4.98354435   0.11269286
3782.00   5.04703236   0.11624277
3784.00   5.01100111   0.11471138
3786.00   4.94618750   0.11298921
3788.00   5.08431530   0.11362725
3790.00   4.95896816   0.11239044
3792.00   4.93803501   0.11147228
3794.00   4.97635126   0.11081620
3796.00   4.99791336   0.10946677
3798.00   4.94180536   0.10894844
3800.00   4.86234140   0.10929910
3802.00   4.85894775   0.10933340
3804.00   4.80989647   0.10853290
3806.00   4.94399357   0.10860985
3808.00   4.91937876   0.10809054
3810.00   4.98933268   0.10853132
3812.00   5.01466227   0.10800034
3814.00   4.92611742   0.10617604
3816.00   4.86225939   0.10537043
3818.00   5.02256107   0.10612126
3820.00   4.90433931   0.10440281
3822.00   5.00354147   0.10484129
3824.00   5.02808762   0.10436343
3826.00   4.89399529   0.10301884
3828.00   4.97009754   0.10410751
3830.00   5.01648045   0.10397520
3832.00   4.96929741   0.10269523
3834.00   5.04055882   0.10309616
3836.00   5.00296164   0.10252398
3838.00   4.94949913   0.10263865
3840.00   5.04042149   0.10394208
3842.00   5.02687836   0.10420115
3844.00   5.07425642   0.10373054
3846.00   5.03205729   0.10223902
3848.00   4.90953112   0.10073072
3850.00   4.95452929   0.10047193
3852.00   5.01784754   0.10112295
3854.00   5.04613543   0.10066082
3856.00   4.99439096   0.09951960
3858.00   5.04710913   0.09908164
3860.00   4.97848606   0.09877244
3862.00   4.97372913   0.09961804
3864.00   5.06094980   0.09968241
3866.00   5.10784674   0.09975091
3868.00   5.05540943   0.09849738
3870.00   5.06505728   0.09807190
3872.00   5.00463295   0.09834578
3874.00   4.99728489   0.09895595
3876.00   4.98322105   0.09783657
3878.00   4.99755764   0.09685875
3880.00   5.02827787   0.09674243
3882.00   4.89261293   0.09566502
3884.00   4.93327332   0.09552401
3886.00   4.92162991   0.09483062
3888.00   4.88627434   0.09466832
3890.00   5.07969332   0.09654706
3892.00   4.90532160   0.09575025
3894.00   4.98968172   0.09611235
3896.00   4.95357418   0.09561306
3898.00   4.73313475   0.09402888
3900.00   4.84023523   0.09462647
3902.00   4.94947243   0.09505803
3904.00   4.95949793   0.09601935
3906.00   4.79477024   0.09609841
3908.00   4.88350582   0.09739058
3910.00   4.74343109   0.09755243
3912.00   4.74331284   0.09763747
3914.00   4.71211958   0.09443299
3916.00   4.70949078   0.09180637
3918.00   4.65555191   0.09017950
3920.00   4.53207111   0.08851072
3922.00   4.62661839   0.08903244
3924.00   4.67854691   0.08899093
3926.00   4.48984385   0.08679038
3928.00   4.49230146   0.08566044
3930.00   4.42325878   0.08538660
3932.00   4.19917393   0.08423721
3934.00   4.07875633   0.08275150
3936.00   4.48451424   0.08477502
3938.00   4.45978832   0.08496900
3940.00   4.51532650   0.08600463
3942.00   4.59029388   0.08685146
3944.00   4.48378754   0.08615740
3946.00   4.50244331   0.08601476
3948.00   4.44191647   0.08531483
3950.00   4.35623646   0.08446872
3952.00   4.41915417   0.08490063
3954.00   4.50728130   0.08474899
3956.00   4.46082258   0.08464310
3958.00   4.42863369   0.08445442
3960.00   4.51202679   0.08512872
3962.00   4.46307468   0.08354443
3964.00   4.28848267   0.08099615
3966.00   4.43113804   0.08149814
3968.00   4.20503902   0.07976873
3970.00   4.51341915   0.08199009
3972.00   4.53803730   0.08257656
3974.00   4.55350590   0.08311964
3976.00   4.46798801   0.08291068
3978.00   4.55749846   0.08396590
3980.00   4.56681299   0.08396050
3982.00   4.62977219   0.08424445
3984.00   4.57892370   0.08343104
3986.00   4.55880308   0.08372354
3988.00   4.54924345   0.08366180
3990.00   4.51666355   0.08319794
3992.00   4.57776546   0.08369969
3994.00   4.56590223   0.08403796
3996.00   4.59696245   0.08404630
3998.00   4.63375568   0.08357418
4000.00   4.57659674   0.08284868
4002.00   4.58219624   0.08227113
4004.00   4.61814451   0.08200615
4006.00   4.62314081   0.08237132
4008.00   4.61338377   0.08256067
4010.00   4.62877226   0.08263893
4012.00   4.72700977   0.08310876
4014.00   4.70676422   0.08285978
4016.00   4.61351013   0.08280290
4018.00   4.66336441   0.08448092
4020.00   4.68926048   0.08572334
4022.00   4.64157152   0.08536909
4024.00   4.70890427   0.08487055
4026.00   4.75130892   0.08367877
4028.00   4.70549917   0.08301240
4030.00   4.75183249   0.08281564
4032.00   4.79999924   0.08234101
4034.00   4.84190607   0.08270741
4036.00   4.73192739   0.08194208
4038.00   4.70169163   0.08165427
4040.00   4.63484955   0.08122170
4042.00   4.75841236   0.08417799
4044.00   4.70923567   0.09321789
4046.00   4.78009033   0.09625828
4048.00   4.66695595   0.08779156
4050.00   4.37466240   0.07974081
4052.00   4.57365704   0.08027774
4054.00   4.49216795   0.07973809
4056.00   4.59142637   0.07948741
4058.00   4.72016478   0.07978331
4060.00   4.68321896   0.07933505
4062.00   4.68914032   0.07912122
4064.00   4.70336151   0.07895136
4066.00   4.75440168   0.07949034
4068.00   4.62906742   0.07881758
4070.00   4.68653870   0.07868497
4072.00   4.63662863   0.07835245
4074.00   4.65398264   0.07906865
4076.00   4.63613844   0.08039165
4078.00   4.53667879   0.07965686
4080.00   4.63688993   0.07962952
4082.00   4.61135483   0.07896324
4084.00   4.60568905   0.07848522
4086.00   4.52212811   0.07804602
4088.00   4.46731710   0.07685451
4090.00   4.43761253   0.07589497
4092.00   4.50650215   0.07630327
4094.00   4.58027697   0.07649748
4096.00   4.49495888   0.07571097
4098.00   4.44800663   0.07539992
4100.00   4.46654463   0.07494672
4102.00   4.41028309   0.07445341
4104.00   4.40920877   0.07478932
4106.00   4.42612934   0.07515137
4108.00   4.43490124   0.07516144
4110.00   4.45301723   0.07534347
4112.00   4.49671602   0.07570075
4114.00   4.39502764   0.07532868
4116.00   4.42727327   0.07529557
4118.00   4.39835548   0.07465266
4120.00   4.43871975   0.07442199
4122.00   4.44401121   0.07484033
4124.00   4.41700745   0.07451774
4126.00   4.37651443   0.07398367
4128.00   4.37990332   0.07357422
4130.00   4.43666983   0.07417639
4132.00   4.42337656   0.07431017
4134.00   4.41211987   0.07392614
4136.00   4.34467363   0.07330133
4138.00   4.42530251   0.07402590
4140.00   4.44706726   0.07381452
4142.00   4.41665220   0.07287244
4144.00   4.44499254   0.07271361
4146.00   4.31739140   0.07207805
4148.00   4.40523434   0.07261284
4150.00   4.31078053   0.07227125
4152.00   4.43984938   0.07288156
4154.00   4.44764280   0.07219548
4156.00   4.42927790   0.07172200
4158.00   4.32979012   0.07144664
4160.00   4.36658478   0.07183959
4162.00   4.44564438   0.07281470
4164.00   4.38849163   0.07281628
4166.00   4.42831564   0.07236377
4168.00   4.39417887   0.07114367
4170.00   4.40887260   0.07064151
4172.00   4.39295673   0.07010397
4174.00   4.44314289   0.07038248
4176.00   4.44584465   0.07049644
4178.00   4.40951777   0.07028520
4180.00   4.38277531   0.06979313
4182.00   4.47990417   0.06991107
4184.00   4.42151451   0.06953549
4186.00   4.47993803   0.06964918
4188.00   4.42607737   0.06933168
4190.00   4.47848606   0.06987309
4192.00   4.45844221   0.06979235
4194.00   4.43188429   0.06925974
4196.00   4.37998962   0.06846763
4198.00   4.40900040   0.06851697
4200.00   4.40987301   0.06845362
4202.00   4.38035631   0.06829555
4204.00   4.37217617   0.06842401
4206.00   4.30621672   0.06826342
4208.00   4.37610579   0.06863914
4210.00   4.35758448   0.06876775
4212.00   4.33271360   0.06829287
4214.00   4.16755676   0.06712251
4216.00   4.29728222   0.06754018
4218.00   4.25817156   0.06732453
4220.00   4.24499798   0.06706014
4222.00   4.27487135   0.06658760
4224.00   4.18844700   0.06561264
4226.00   4.09724998   0.06520100
4228.00   4.09661007   0.06545687
4230.00   4.03469181   0.06568435
4232.00   4.10673523   0.06572507
4234.00   4.04546547   0.06538938
4236.00   3.98602343   0.06488032
4238.00   3.96909261   0.06466788
4240.00   3.99488139   0.06429923
4242.00   3.96284103   0.06429534
4244.00   3.88521075   0.06528389
4246.00   3.93000650   0.06576607
4248.00   3.87169838   0.06427140
4250.00   3.91300344   0.06346162
4252.00   3.87281227   0.06307630
4254.00   3.81882048   0.06285778
4256.00   3.84062862   0.06289742
4258.00   3.82040453   0.06242532
4260.00   3.80172682   0.06215568
4262.00   3.80067205   0.06245585
4264.00   3.75104690   0.06199875
4266.00   3.82711935   0.06235910
4268.00   3.74306011   0.06144312
4270.00   3.69058895   0.06084191
4272.00   3.74591756   0.06118298
4274.00   3.70196366   0.06135324
4276.00   3.74320126   0.06190317
4278.00   3.74474931   0.06186572
4280.00   3.73560047   0.06131333
4282.00   3.80032682   0.06152713
4284.00   3.76425362   0.06115695
4286.00   3.69715834   0.06059222
4288.00   3.74903870   0.06055867
4290.00   3.79919720   0.06091877
4292.00   3.82510448   0.06120551
4294.00   3.78962040   0.06091000
4296.00   3.78138399   0.06061221
4298.00   3.71109605   0.05973130
4300.00   3.74271536   0.05952166
4302.00   3.73081422   0.05960460
4304.00   3.74527025   0.05970890
4306.00   3.70601034   0.05949682
4308.00   3.73963165   0.05968751
4310.00   3.76883936   0.06034955
4312.00   3.74135041   0.06154131
4314.00   3.71939993   0.06196265
4316.00   3.64768195   0.06130396
4318.00   3.75117898   0.06208643
4320.00   3.71883249   0.06200467
4322.00   3.73833799   0.06133135
4324.00   3.73078060   0.06079538
4326.00   3.61048746   0.06023394
4328.00   3.59295630   0.06009877
4330.00   3.61544824   0.06018501
4332.00   3.56747913   0.05996840
4334.00   3.55762148   0.05961858
4336.00   3.52279568   0.05924591
4338.00   3.46790838   0.05869119
4340.00   3.50655961   0.05894118
4342.00   3.48203993   0.05910551
4344.00   3.55453539   0.06031368
4346.00   3.52551126   0.06055915
4348.00   3.51401687   0.06035651
4350.00   3.52575755   0.05979481
4352.00   3.47185826   0.05938868
4354.00   3.48273516   0.06583474
4356.00   3.44463205   0.07948418
4358.00   3.50264740   0.08238083
4360.00   3.43763733   0.07045887
4362.00   3.40119720   0.06215973
4364.00   3.45259261   0.06050181
4366.00   3.46747708   0.06002998
4368.00   3.46675992   0.05974741
4370.00   3.46885228   0.05967959
4372.00   3.40993071   0.05965590
4374.00   3.41427374   0.05967970
4376.00   3.51056743   0.05954248
4378.00   3.40902400   0.05863268
4380.00   3.46645331   0.05852418
4382.00   3.47505832   0.05775047
4384.00   3.42208576   0.05724778
4386.00   3.41652822   0.05731850
4388.00   3.45832634   0.05744077
4390.00   3.41563964   0.05721965
4392.00   3.44511366   0.05731809
4394.00   3.37301445   0.05686240
4396.00   3.41911221   0.05721043
4398.00   3.43242383   0.05760905
4400.00   3.41290236   0.05762282
4402.00   3.38478923   0.05694915
4404.00   3.44530773   0.05678263
4406.00   3.42257810   0.05679693
4408.00   3.38705492   0.05683768
4410.00   3.44976521   0.05733056
4412.00   3.39594555   0.05720557
4414.00   3.37536287   0.05708341
4416.00   3.38830590   0.05713235
4418.00   3.40552735   0.05694280
4420.00   3.39864349   0.05672890
4422.00   3.42297101   0.05664197
4424.00   3.43062782   0.05677715
4426.00   3.44130087   0.05690080
4428.00   3.41377187   0.05655285
4430.00   3.50909066   0.05690534
4432.00   3.44177508   0.05654746
4434.00   3.44840670   0.05642234
4436.00   3.51419783   0.05689738
4438.00   3.51433420   0.05704151
4440.00   3.46158528   0.05673397
4442.00   3.52342105   0.05682100
4444.00   3.56636000   0.05698229
4446.00   3.51296449   0.05685519
4448.00   3.53122282   0.05675687
4450.00   3.63084149   0.05738162
4452.00   3.59858274   0.05706210
4454.00   3.60437942   0.05689308
4456.00   3.72841930   0.05725164
4458.00   3.68745136   0.05714495
4460.00   3.69214034   0.05723338
4462.00   3.63005567   0.05702937
4464.00   3.61079645   0.05706772
4466.00   3.67594528   0.05713900
4468.00   3.62291980   0.05673169
4470.00   3.74679208   0.05741017
4472.00   3.65155172   0.05726233
4474.00   3.72844481   0.05732315
4476.00   3.71665812   0.05693908
4478.00   3.74961638   0.05674583
4480.00   3.75085878   0.05665557
4482.00   3.73712635   0.05658216
4484.00   3.72728109   0.05667088
4486.00   3.75676513   0.05701353
4488.00   3.74317169   0.05685751
4490.00   3.78055549   0.05698498
4492.00   3.83931160   0.05741537
4494.00   3.84616947   0.05835198
4496.00   3.81340170   0.05735163
4498.00   3.78489089   0.05710196
4500.00   3.74250221   0.05667067
4502.00   3.72775316   0.05661905
4504.00   3.76646805   0.05673014
4506.00   3.76380563   0.05649018
4508.00   3.72088790   0.05617566
4510.00   3.65958643   0.05588067
4512.00   3.65611148   0.05583289
4514.00   3.67844462   0.05570722
4516.00   3.66085839   0.05556109
4518.00   3.59574318   0.05520722
4520.00   3.55963421   0.05484622
4522.00   3.60404158   0.05480732
4524.00   3.60841012   0.05463053
4526.00   3.57330775   0.05430536
4528.00   3.56057906   0.05429225
4530.00   3.53537679   0.05413368
4532.00   3.53455758   0.05399007
4534.00   3.50099397   0.05388781
4536.00   3.39421606   0.05343585
4538.00   3.42033935   0.05350196
4540.00   3.44368792   0.05365851
4542.00   3.35420728   0.05341063
4544.00   3.38939595   0.05325988
4546.00   3.31125045   0.05260664
4548.00   3.30730915   0.05252277
4550.00   3.25312614   0.05195865
4552.00   3.27429271   0.05197406
4554.00   3.23344088   0.05194964
4556.00   3.19538450   0.05167380
4558.00   3.26226735   0.05192648
4560.00   3.19719195   0.05152310
4562.00   3.25683427   0.05148003
4564.00   3.20275402   0.05104681
4566.00   3.21856666   0.05107585
4568.00   3.24993944   0.05119033
4570.00   3.10966539   0.05034671
4572.00   3.21936870   0.05089607
4574.00   3.20224524   0.05070956
4576.00   3.19133973   0.05045092
4578.00   3.14891100   0.05004904
4580.00   3.20246458   0.05003121
4582.00   3.25682616   0.05019223
4584.00   3.22867012   0.05011837
4586.00   3.29019642   0.05049434
4588.00   3.25598931   0.05054544
4590.00   3.27739048   0.05067219
4592.00   3.23941755   0.05049436
4594.00   3.32906675   0.05096366
4596.00   3.33012176   0.05103601
4598.00   3.28719831   0.05087078
4600.00   3.36700177   0.05108107
4602.00   3.33724213   0.05107585
4604.00   3.35491776   0.05130694
4606.00   3.39880919   0.05167289
4608.00   3.40987897   0.05187441
4610.00   3.38631272   0.05178836
4612.00   3.38368177   0.05150058
4614.00   3.41816282   0.05173851
4616.00   3.41302872   0.05160395
4618.00   3.39489985   0.05149757
4620.00   3.41289449   0.05171195
4622.00   3.42402148   0.05174528
4624.00   3.40635729   0.05167188
4626.00   3.40135479   0.05146339
4628.00   3.35006404   0.05111152
4630.00   3.33079362   0.05089216
4632.00   3.31168294   0.05073617
4634.00   3.34682178   0.05076527
4636.00   3.27791667   0.05032589
4638.00   3.27520943   0.05027582
4640.00   3.30359483   0.05053319
4642.00   3.26289821   0.05035776
4644.00   3.22371459   0.04999059
4646.00   3.26671004   0.05006728
4648.00   3.24336839   0.04997112
4650.00   3.26571894   0.05020771
4652.00   3.22515798   0.05001556
4654.00   3.14946699   0.04954578
4656.00   3.21120977   0.04987377
4658.00   3.22316837   0.05002679
4660.00   3.18987608   0.04998846
4662.00   3.13738894   0.04964632
4664.00   3.16265607   0.04960158
4666.00   3.17285085   0.04956539
4668.00   3.12173104   0.04946601
4670.00   3.16829157   0.04979405
4672.00   3.16272378   0.04964805
4674.00   3.15995765   0.04952010
4676.00   3.19160271   0.04938915
4678.00   3.16530728   0.04911732
4680.00   3.15255976   0.04892831
4682.00   3.20088768   0.04911194
4684.00   3.16407967   0.04887443
4686.00   3.16990447   0.04875447
4688.00   3.23608255   0.04900795
4690.00   3.22085142   0.04898276
4692.00   3.22699690   0.04879825
4694.00   3.23653841   0.04887207
4696.00   3.18449211   0.04851255
4698.00   3.18613005   0.04843295
4700.00   3.19050097   0.04830518
4702.00   3.21282291   0.04834561
4704.00   3.25333285   0.04876280
4706.00   3.27670050   0.04906495
4708.00   3.28350663   0.04905248
4710.00   3.26359940   0.04905630
4712.00   3.31409955   0.04910383
4714.00   3.26193070   0.04870233
4716.00   3.27477241   0.04875858
4718.00   3.28751707   0.04878660
4720.00   3.26701951   0.04875359
4722.00   3.24361014   0.04863881
4724.00   3.26452446   0.04861287
4726.00   3.28971529   0.04913085
4728.00   3.27454853   0.04948697
4730.00   3.23568583   0.04925941
4732.00   3.34650135   0.04972011
4734.00   3.31675363   0.04975887
4736.00   3.27082086   0.04952108
4738.00   3.29093671   0.04991279
4740.00   3.38543606   0.05063527
4742.00   3.38648939   0.05076262
4744.00   3.37086987   0.05025736
4746.00   3.33597541   0.04926312
4748.00   3.38284397   0.04896298
4750.00   3.35499978   0.04881355
4752.00   3.36639738   0.04903793
4754.00   3.32915068   0.04858117
4756.00   3.30538368   0.04826792
4758.00   3.35092521   0.04831675
4760.00   3.33369160   0.04816758
4762.00   3.35354400   0.04788570
4764.00   3.32964754   0.04783345
4766.00   3.37167573   0.04811912
