% File created by shivutils (I.Shivvers)
% wl(A)   flm    er(optional)
3489.00   7.80107927   0.30134401
3490.00   7.85309315   0.30172196
3491.00   7.93198681   0.30138582
3492.00   7.83485651   0.29785299
3493.00   7.96017313   0.29853871
3494.00   8.17288303   0.30045888
3495.00   8.19072342   0.29899943
3496.00   8.09027195   0.29590482
3497.00   7.89140320   0.29211456
3498.00   7.84431553   0.29011330
3499.00   7.81286240   0.29051733
3500.00   7.61792898   0.28899333
3501.00   7.61047745   0.28770432
3502.00   7.84858704   0.28955075
3503.00   7.93123007   0.28838187
3504.00   7.86635876   0.28602862
3505.00   7.94701052   0.28690282
3506.00   7.83813286   0.28500229
3507.00   7.88565254   0.28489232
3508.00   7.97525930   0.28515017
3509.00   7.98669004   0.28389665
3510.00   7.80688429   0.28115588
3511.00   7.92105055   0.28237292
3512.00   7.95734692   0.27973580
3513.00   7.78838682   0.27735424
3514.00   7.75115299   0.27724752
3515.00   7.89211130   0.28032094
3516.00   8.01625633   0.28145224
3517.00   7.94348621   0.28054535
3518.00   7.65903568   0.27673578
3519.00   7.96103668   0.27718332
3520.00   8.12380123   0.27915439
3521.00   7.71134186   0.27543941
3522.00   8.05978107   0.27772978
3523.00   7.91834259   0.27537340
3524.00   7.44577217   0.26958102
3525.00   7.86290359   0.27530646
3526.00   7.87595320   0.27596530
3527.00   7.97562265   0.27716079
3528.00   8.03183270   0.27678141
3529.00   7.89867735   0.27686051
3530.00   7.89296532   0.27809310
3531.00   8.08751011   0.27942708
3532.00   8.23605537   0.27946520
3533.00   8.37745094   0.28263301
3534.00   8.16409111   0.27994591
3535.00   7.97450399   0.27678034
3536.00   8.11902142   0.27835682
3537.00   8.01066875   0.27778280
3538.00   8.09124565   0.27975160
3539.00   8.21505165   0.28119826
3540.00   8.08229065   0.27965209
3541.00   8.28551006   0.28334546
3542.00   8.34539986   0.28458226
3543.00   8.45311832   0.28458506
3544.00   8.72747898   0.28707641
3545.00   8.31448746   0.28217614
3546.00   8.14167595   0.28027335
3547.00   8.01409435   0.27871099
3548.00   8.08162594   0.27885616
3549.00   8.40244579   0.28229031
3550.00   8.37218094   0.28207850
3551.00   8.15249920   0.27923328
3552.00   7.87519836   0.27593079
3553.00   8.08476257   0.27722859
3554.00   8.11692047   0.27740374
3555.00   8.16024113   0.27989128
3556.00   7.86967087   0.27564132
3557.00   8.12859058   0.27814957
3558.00   8.05833435   0.27798992
3559.00   7.90341377   0.27411270
3560.00   7.80790854   0.27278176
3561.00   8.20162010   0.27809808
3562.00   8.13934231   0.27576336
3563.00   7.98682880   0.27310219
3564.00   8.15413952   0.27370197
3565.00   8.00290012   0.27187508
3566.00   7.75377798   0.26718876
3567.00   7.58544254   0.26506031
3568.00   7.88836241   0.26868954
3569.00   7.84375763   0.26765537
3570.00   7.60898352   0.26512855
3571.00   7.76973724   0.26549029
3572.00   8.03320408   0.26745474
3573.00   7.80080175   0.26588729
3574.00   7.63056850   0.26471317
3575.00   7.75360870   0.26490369
3576.00   7.61448383   0.26198125
3577.00   7.58200264   0.25974101
3578.00   7.64811611   0.25883728
3579.00   7.45178413   0.25622371
3580.00   7.49406099   0.25621653
3581.00   7.72439909   0.25720063
3582.00   7.63694000   0.25398135
3583.00   7.36587191   0.25031155
3584.00   7.37712574   0.25077131
3585.00   7.45804977   0.25056940
3586.00   7.24054670   0.24633685
3587.00   7.17815924   0.24655148
3588.00   7.18146896   0.24772134
3589.00   7.32644224   0.24868263
3590.00   7.23022175   0.24693878
3591.00   7.21628094   0.24619448
3592.00   7.13796377   0.24319045
3593.00   7.27773714   0.24562928
3594.00   6.99980164   0.24276458
3595.00   7.17860651   0.24342142
3596.00   7.10978746   0.24184616
3597.00   7.05686140   0.24268022
3598.00   7.10023451   0.24244805
3599.00   6.87933445   0.23824489
3600.00   7.19667244   0.24160460
3601.00   7.19362259   0.24013434
3602.00   7.24889421   0.23833747
3603.00   7.14099169   0.23709995
3604.00   7.31934214   0.23914184
3605.00   7.20397043   0.23692799
3606.00   7.32595348   0.23755185
3607.00   7.27024126   0.23709787
3608.00   7.19989967   0.23715220
3609.00   7.12870646   0.23564273
3610.00   7.42515326   0.23858717
3611.00   7.39148951   0.23953150
3612.00   7.21797132   0.23829523
3613.00   7.18642330   0.23762606
3614.00   7.38924980   0.23911870
3615.00   7.27447081   0.23709089
3616.00   7.17940903   0.23407765
3617.00   7.39106131   0.23502415
3618.00   7.20276308   0.23313081
3619.00   7.12798262   0.23173650
3620.00   7.27486420   0.23393154
3621.00   7.16870785   0.23384194
3622.00   7.20538712   0.23285423
3623.00   7.14260817   0.23159903
3624.00   7.08072519   0.23116958
3625.00   7.23653698   0.23279512
3626.00   7.29953623   0.23337843
3627.00   7.56264782   0.23610258
3628.00   7.44320154   0.23472510
3629.00   7.11910391   0.23090838
3630.00   7.10057163   0.22970106
3631.00   7.46120453   0.23229159
3632.00   7.39609432   0.23174828
3633.00   7.36865616   0.23102137
3634.00   7.12255621   0.22809204
3635.00   7.41176844   0.23074916
3636.00   7.39496994   0.23056415
3637.00   7.28343439   0.22966656
3638.00   7.41314793   0.22927463
3639.00   7.27946997   0.22775146
3640.00   7.43514681   0.23034674
3641.00   7.48671675   0.23109022
3642.00   7.25578403   0.22833480
3643.00   7.26618052   0.22824369
3644.00   7.27807236   0.22702478
3645.00   7.19130707   0.22652857
3646.00   7.13887310   0.22881673
3647.00   7.10994387   0.23403139
3648.00   7.04259920   0.23927315
3649.00   7.26127386   0.24426168
3650.00   7.27351141   0.24354842
3651.00   7.18349791   0.23887330
3652.00   7.25850964   0.23628385
3653.00   7.03432369   0.23168007
3654.00   6.87733221   0.22822493
3655.00   7.04809380   0.22693193
3656.00   7.32498789   0.22623484
3657.00   7.33528852   0.22431962
3658.00   7.20085192   0.22068657
3659.00   7.14941549   0.21985067
3660.00   7.21780729   0.22445543
3661.00   7.10132217   0.22546366
3662.00   6.90710115   0.22206661
3663.00   7.19310045   0.22412258
3664.00   7.29803944   0.22364323
3665.00   7.12008953   0.21780282
3666.00   7.10181475   0.21447594
3667.00   7.17883253   0.21361661
3668.00   7.13248873   0.21277142
3669.00   7.19880342   0.21339475
3670.00   7.26223373   0.21276751
3671.00   7.13669109   0.21153153
3672.00   6.94663668   0.20954044
3673.00   7.07870197   0.21084458
3674.00   7.15150785   0.21081419
3675.00   7.14190674   0.21074735
3676.00   7.03790331   0.20842044
3677.00   6.98299408   0.20679729
3678.00   7.09851646   0.20799407
3679.00   7.01674366   0.20636037
3680.00   6.93656254   0.20409018
3681.00   6.97021770   0.20550323
3682.00   7.21596575   0.20823228
3683.00   7.09971523   0.20652083
3684.00   7.17533398   0.20619446
3685.00   7.09601784   0.20392451
3686.00   7.03028440   0.20281692
3687.00   6.89554358   0.20154527
3688.00   6.92666054   0.20223051
3689.00   7.01870155   0.20360337
3690.00   7.05070686   0.20402128
3691.00   7.07850981   0.20415469
3692.00   6.93689775   0.20157740
3693.00   6.99819040   0.20176464
3694.00   7.06305742   0.20245002
3695.00   6.95645046   0.19813013
3696.00   7.17126799   0.21260169
3697.00   7.22176695   0.21790889
3698.00   6.97056913   0.20344649
3699.00   6.93733549   0.19861448
3700.00   6.95532036   0.20080814
3701.00   6.88842249   0.19901997
3702.00   6.94120407   0.19722505
3703.00   6.97012138   0.19676003
3704.00   6.79213381   0.19525895
3705.00   6.76240206   0.19434945
3706.00   6.81678486   0.19421610
3707.00   6.76540804   0.19339596
3708.00   6.70905256   0.19186951
3709.00   6.76218557   0.19141565
3710.00   6.79381561   0.19244598
3711.00   7.01258373   0.19448406
3712.00   7.11175728   0.19512744
3713.00   6.94123030   0.19235468
3714.00   6.72087669   0.19005753
3715.00   6.57207155   0.18760446
3716.00   6.67976761   0.18829405
3717.00   6.82576847   0.19005705
3718.00   6.86554337   0.18899955
3719.00   6.68198538   0.18593825
3720.00   6.68244600   0.18496305
3721.00   6.77390432   0.20132543
3722.00   6.84981394   0.19148365
3723.00   6.94733953   0.18657583
3724.00   6.86675739   0.18635115
3725.00   6.80650139   0.18606782
3726.00   6.87675619   0.18600139
3727.00   6.80818748   0.18512757
3728.00   6.68708229   0.18355834
3729.00   6.76624584   0.18382466
3730.00   6.75075245   0.18282095
3731.00   6.63289881   0.18079595
3732.00   6.79594231   0.18175271
3733.00   6.77139139   0.18024205
3734.00   6.67048597   0.17858160
3735.00   6.67524672   0.17848021
3736.00   6.61977673   0.17783137
3737.00   6.67506361   0.17853989
3738.00   6.66642857   0.17918617
3739.00   6.61358261   0.17930427
3740.00   6.63106537   0.17900071
3741.00   6.57118416   0.17745985
3742.00   6.54752207   0.17614324
3743.00   6.43567467   0.17391378
3744.00   6.43812037   0.17314832
3745.00   6.65403128   0.17455366
3746.00   6.61561012   0.17289655
3747.00   6.60286999   0.17248017
3748.00   6.60571241   0.17320220
3749.00   6.57649851   0.17259955
3750.00   6.65969467   0.17363410
3751.00   6.59150171   0.17365760
3752.00   6.68857098   0.17459114
3753.00   6.49199533   0.17200521
3754.00   6.58498907   0.17273590
3755.00   6.67421532   0.17244133
3756.00   6.61610508   0.17149679
3757.00   6.80937958   0.17282015
3758.00   6.58195114   0.17116605
3759.00   6.79680824   0.17186359
3760.00   6.57884455   0.17025469
3761.00   6.64267111   0.16996939
3762.00   6.60051250   0.16922821
3763.00   6.48083925   0.16810924
3764.00   6.50966597   0.16719574
3765.00   6.58387852   0.16794513
3766.00   6.52460718   0.16726148
3767.00   6.58514547   0.16691670
3768.00   6.54549026   0.16649652
3769.00   6.65398550   0.16785093
3770.00   6.69571209   0.16793522
3771.00   6.54461384   0.16710633
3772.00   6.50721169   0.16670264
3773.00   6.55960131   0.16626501
3774.00   6.48032045   0.16547567
3775.00   6.43116140   0.16544123
3776.00   6.50411558   0.16585368
3777.00   6.66571712   0.16662420
3778.00   6.74157047   0.16709016
3779.00   6.54999399   0.16553029
3780.00   6.40306711   0.16414078
3781.00   6.52448177   0.16511907
3782.00   6.59739923   0.16581833
3783.00   6.49860811   0.16483030
3784.00   6.41430283   0.16338810
3785.00   6.47838640   0.16306482
3786.00   6.53612614   0.16314434
3787.00   6.39435530   0.16106306
3788.00   6.47076607   0.16191472
3789.00   6.53251123   0.16171223
3790.00   6.49234819   0.16129130
3791.00   6.51052856   0.16116382
3792.00   6.50565910   0.16105375
3793.00   6.47571898   0.16029115
3794.00   6.55151081   0.15995806
3795.00   6.61262226   0.16053908
3796.00   6.58926535   0.16003101
3797.00   6.58920288   0.15939121
3798.00   6.60847998   0.15939571
3799.00   6.51762152   0.15868321
3800.00   6.38045883   0.15810519
3801.00   6.51285076   0.15923296
3802.00   6.46597719   0.15874223
3803.00   6.45242643   0.15863648
3804.00   6.52273893   0.15860300
3805.00   6.55485106   0.15830547
3806.00   6.53233147   0.15751058
3807.00   6.42059946   0.15656038
3808.00   6.59972620   0.15852344
3809.00   6.61727333   0.15851265
3810.00   6.63147879   0.15771401
3811.00   6.70889139   0.15808263
3812.00   6.67927408   0.15704800
3813.00   6.52264595   0.15473703
3814.00   6.70238113   0.15661120
3815.00   6.75251007   0.15712377
3816.00   6.65333271   0.15549985
3817.00   6.63781166   0.15516841
3818.00   6.60305929   0.15486850
3819.00   6.67979908   0.15488529
3820.00   6.74868298   0.15507410
3821.00   6.67388153   0.15476270
3822.00   6.63087940   0.15434152
3823.00   6.74142694   0.15474343
3824.00   6.76295280   0.15465778
3825.00   6.65056705   0.15298770
3826.00   6.45714283   0.15072450
3827.00   6.55888557   0.15184303
3828.00   6.69813490   0.15323421
3829.00   6.72459841   0.15366830
3830.00   6.72969055   0.15379675
3831.00   6.92557859   0.15451387
3832.00   6.93514824   0.15417744
3833.00   6.87210417   0.15339828
3834.00   6.78130960   0.15232219
3835.00   6.86392498   0.15276413
3836.00   6.75776196   0.15181987
3837.00   6.85417223   0.15233712
3838.00   6.83529186   0.15277696
3839.00   6.80867815   0.15294483
3840.00   6.86319828   0.15336168
3841.00   6.90139866   0.15406409
3842.00   7.09050608   0.15583248
3843.00   6.86483431   0.15451662
3844.00   6.75477266   0.15237732
3845.00   6.57297230   0.14962950
3846.00   6.71000051   0.15006325
3847.00   6.93930101   0.15167992
3848.00   6.71025133   0.14959408
3849.00   6.75301218   0.14968202
3850.00   6.93591309   0.15065996
3851.00   6.81896687   0.14978962
3852.00   6.74709177   0.14878051
3853.00   6.78639364   0.14815632
3854.00   6.75361681   0.14755586
3855.00   6.92229414   0.14891417
3856.00   6.99862051   0.14931558
3857.00   6.91380119   0.14810568
3858.00   6.89168835   0.14742845
3859.00   6.80302429   0.14638032
3860.00   6.74816608   0.14617798
3861.00   6.77003002   0.14678755
3862.00   6.81616879   0.14694566
3863.00   6.83661556   0.14714293
3864.00   6.83557320   0.14698178
3865.00   6.96488810   0.14725599
3866.00   6.88403034   0.14639355
3867.00   6.83214569   0.14570026
3868.00   6.79968548   0.14508109
3869.00   6.57195282   0.14256242
3870.00   6.53087378   0.14145517
3871.00   6.79487801   0.14402494
3872.00   6.84487629   0.14513487
3873.00   6.76851511   0.14427984
3874.00   6.77390289   0.14463128
3875.00   6.73092365   0.14399379
3876.00   6.72867584   0.14375655
3877.00   6.84070492   0.14400093
3878.00   6.74349260   0.14219555
3879.00   6.73466825   0.14173651
3880.00   6.68214178   0.14114808
3881.00   6.61890268   0.14028141
3882.00   6.68041468   0.14093179
3883.00   6.72845459   0.14116754
3884.00   6.74854660   0.14124255
3885.00   6.71564722   0.14086521
3886.00   6.79161167   0.14073457
3887.00   6.69877195   0.13949272
3888.00   6.67793846   0.13944024
3889.00   6.59580040   0.13875973
3890.00   6.53891182   0.13830480
3891.00   6.59062290   0.13869426
3892.00   6.67029333   0.13944580
3893.00   6.66062546   0.13905311
3894.00   6.69644451   0.13886727
3895.00   6.69409084   0.13917574
3896.00   6.59684849   0.13878229
3897.00   6.59047937   0.13846774
3898.00   6.58805990   0.13821436
3899.00   6.48649931   0.13711140
3900.00   6.53845215   0.13727503
3901.00   6.61901474   0.13808914
3902.00   6.42359066   0.13622317
3903.00   6.33898592   0.13511652
3904.00   6.44863176   0.13650027
3905.00   6.44340277   0.13775948
3906.00   6.37334347   0.13836603
3907.00   6.30124044   0.13813403
3908.00   6.33253956   0.13843311
3909.00   6.27899075   0.13820013
3910.00   6.21888494   0.13786024
3911.00   6.27700520   0.13882880
3912.00   6.18528032   0.13834241
3913.00   6.36040115   0.13833742
3914.00   6.28711462   0.13587087
3915.00   6.25517845   0.13399553
3916.00   6.24694967   0.13276657
3917.00   6.20387459   0.13179705
3918.00   6.19641972   0.13134393
3919.00   6.28057289   0.13090314
3920.00   6.14287710   0.12943561
3921.00   6.14917183   0.14073680
3922.00   5.99766684   0.14780009
3923.00   6.15261602   0.13446683
3924.00   6.12049437   0.12877277
3925.00   6.11891556   0.12829573
3926.00   6.20351410   0.12824161
3927.00   6.18779421   0.12771167
3928.00   6.08976603   0.12651661
3929.00   6.07743502   0.12621589
3930.00   6.05986500   0.12661989
3931.00   5.97692490   0.12684065
3932.00   5.79622459   0.12580228
3933.00   5.51897144   0.12327763
3934.00   5.41405869   0.12168489
3935.00   5.70510006   0.12296695
3936.00   5.98374224   0.12426874
3937.00   6.13769388   0.12552135
3938.00   6.18409157   0.12634608
3939.00   6.10337687   0.12566070
3940.00   6.07502794   0.12561557
3941.00   6.06118536   0.12591165
3942.00   6.05247927   0.12585466
3943.00   6.00059271   0.12580825
3944.00   6.07500982   0.12654084
3945.00   5.96146011   0.12509681
3946.00   5.85741520   0.12348638
3947.00   5.98782921   0.12472840
3948.00   6.00312948   0.12473137
3949.00   6.04349232   0.12495176
3950.00   6.10291386   0.12481082
3951.00   6.01339006   0.12378945
3952.00   5.92693472   0.12308322
3953.00   5.85127306   0.12248287
3954.00   5.88047886   0.12273657
3955.00   6.10371685   0.12378715
3956.00   6.14080143   0.12385137
3957.00   6.11141491   0.12390336
3958.00   6.05918264   0.12371319
3959.00   5.95346594   0.12306835
3960.00   5.86414671   0.12249367
3961.00   5.95222473   0.12298314
3962.00   5.90629530   0.12193862
3963.00   5.94241905   0.12165471
3964.00   5.95555115   0.12053699
3965.00   6.04763365   0.12101272
3966.00   5.89036608   0.12000871
3967.00   5.69477749   0.11852659
3968.00   5.68992472   0.11802734
3969.00   5.69658041   0.11780788
3970.00   5.89370108   0.11953907
3971.00   6.08661270   0.12130271
3972.00   6.01181364   0.12061714
3973.00   5.97536898   0.12049576
3974.00   6.07154083   0.12134609
3975.00   6.17027950   0.12185437
3976.00   6.23744535   0.12231277
3977.00   6.20625830   0.12234677
3978.00   6.12848520   0.12206767
3979.00   6.10949278   0.12190430
3980.00   6.08953714   0.12174866
3981.00   6.08041763   0.12179331
3982.00   6.13427210   0.12194611
3983.00   6.11850023   0.12144415
3984.00   6.12924862   0.12111676
3985.00   6.22185898   0.12205484
3986.00   6.23070383   0.12235531
3987.00   6.16022778   0.12198583
3988.00   6.24557161   0.12238535
3989.00   6.29324341   0.12253190
3990.00   6.27992153   0.12217383
3991.00   6.26246786   0.12233623
3992.00   6.18474674   0.12181766
3993.00   6.24203253   0.12269540
3994.00   6.28388500   0.12339888
3995.00   6.10078239   0.12233934
3996.00   5.99602747   0.12118331
3997.00   6.28538895   0.12243777
3998.00   6.30656052   0.12225623
3999.00   6.10392475   0.12066399
4000.00   6.12414932   0.12069008
4001.00   6.14173365   0.12005397
4002.00   6.23575354   0.12037543
4003.00   6.19553614   0.11998589
4004.00   6.22927809   0.11964291
4005.00   6.23651457   0.11953619
4006.00   6.26853275   0.12028409
4007.00   6.16185808   0.11979104
4008.00   6.28358507   0.12060144
4009.00   6.29248810   0.12060101
4010.00   6.31860352   0.12074628
4011.00   6.30571365   0.12077712
4012.00   6.26380396   0.12032253
4013.00   6.31368637   0.12028780
4014.00   6.36653948   0.12024909
4015.00   6.29956198   0.12009461
4016.00   6.28841352   0.12062254
4017.00   6.40068674   0.12181851
4018.00   6.48341131   0.12334832
4019.00   6.43529940   0.12426469
4020.00   6.23377228   0.12366140
4021.00   6.16352701   0.12331659
4022.00   6.32158184   0.12406774
4023.00   6.41669607   0.12405067
4024.00   6.40381861   0.12341613
4025.00   6.41337633   0.12259880
4026.00   6.41754246   0.12132379
4027.00   6.42977953   0.12084135
4028.00   6.38109255   0.12067592
4029.00   6.32712698   0.12032375
4030.00   6.19811869   0.11914340
4031.00   6.23280430   0.11883917
4032.00   6.24206877   0.11822364
4033.00   6.32396412   0.11871483
4034.00   6.42855930   0.11947017
4035.00   6.43235493   0.11957739
4036.00   6.41036654   0.11929005
4037.00   6.44506788   0.11900964
4038.00   6.43430567   0.11854111
4039.00   6.34850645   0.11779871
4040.00   6.29791212   0.11731695
4041.00   6.24719334   0.11724622
4042.00   6.22718096   0.11789300
4043.00   6.33199787   0.12430423
4044.00   6.37623119   0.13329241
4045.00   6.33941460   0.13785645
4046.00   6.31260633   0.13915056
4047.00   6.24349403   0.13601035
4048.00   6.28680515   0.12876552
4049.00   6.20218706   0.12073207
4050.00   6.09717274   0.11596373
4051.00   6.08204222   0.11472996
4052.00   5.99736881   0.11428531
4053.00   6.00773478   0.11461338
4054.00   5.91380787   0.11392272
4055.00   5.90002060   0.11325739
4056.00   6.04981041   0.11346177
4057.00   6.21351957   0.11435453
4058.00   6.26385975   0.11467906
4059.00   6.17238855   0.11353031
4060.00   6.18524313   0.11320285
4061.00   6.14932156   0.11281324
4062.00   6.05191898   0.11197419
4063.00   5.99787426   0.11153694
4064.00   6.04743814   0.11168798
4065.00   5.97993422   0.11103071
4066.00   5.99618673   0.11144027
4067.00   6.03595400   0.11168648
4068.00   6.07231951   0.11178809
4069.00   5.95325470   0.11071280
4070.00   5.86973095   0.10986727
4071.00   6.01795053   0.11086141
4072.00   6.08671379   0.11135109
4073.00   5.88037062   0.11024077
4074.00   5.91189480   0.11063495
