# SOURCE  = 'Quimby et al. 2018' /                                                
# OBJECT  = 'PTF09atu'           /                                                
# Z       =             0.501400 / wavelengths in OBSERVER FRAME                 
# NORM    =          1.49370E-17 / fluxes divided by norm                         
# CLIPPED =                    1 / galaxy emission lines removed                  
# SMOOTHED=                    1 / spectrum has been smoothed                     
# COLUMN01= 'Wavelength (Angstrom)' /                                             
# COLUMN02= 'Flux Density (erg/s/cm2/A)' /                                        
# COLUMN03= 'Flux Density Uncertainty (erg/s/cm2/A)' /                            
# END                                                                             
# 
# 
# 
# 
# 
# 
# 
# 
# 
# 
# Converted to Observer Frame using z=0.501
 4797.93994 1.2537808 0.1241522
 4802.73985 1.2313091 0.1213687
 4807.54030 1.2327306 0.1187932
 4812.34021 1.2338235 0.1164670
 4817.16322 1.2363675 0.1140637
 4821.98569 1.2025472 0.1117055
 4826.80870 1.2637672 0.1086140
 4831.63117 1.2747730 0.1063913
 4836.45418 1.2749748 0.1042489
 4841.29921 1.2863212 0.1022374
 4846.14423 1.2468944 0.1002333
 4850.98980 1.2460130 0.0985100
 4855.83483 1.2342860 0.0969641
 4860.70296 1.2320014 0.0952537
 4865.54798 1.2464952 0.0928300
 4870.41556 1.2298985 0.0911320
 4875.28369 1.2225554 0.0892142
 4880.17383 1.2316463 0.0873008
 4885.04141 1.2332520 0.0856338
 4889.93210 1.1944281 0.0839553
 4894.82224 1.1347573 0.0823746
 4899.71238 1.1205438 0.0809367
 4904.62563 1.0817735 0.0788062
 4909.51577 0.9995979 0.0774300
 4914.42846 0.9662405 0.0759616
 4919.34116 0.9147763 0.0745858
 4924.27697 0.8681125 0.0734256
 4929.18966 0.8411149 0.0721758
 4934.12492 0.8043820 0.0709954
 4939.06017 0.7777788 0.0694771
 4943.99598 0.7565982 0.0683606
 4948.93123 0.7426305 0.0674599
 4953.88905 0.7397909 0.0663726
 4958.84686 0.7535308 0.0652789
 4963.80522 0.7348943 0.0643836
 4968.76303 0.7334280 0.0627638
 4973.74341 0.7553573 0.0618254
 4978.70122 0.7494867 0.0608391
 4983.68159 0.7730284 0.0598147
 4988.66196 0.7842608 0.0587286
 4993.66544 0.8168722 0.0574964
 4998.64581 0.8223285 0.0564338
 5003.64874 0.8642222 0.0548645
 5008.65167 0.9034611 0.0538976
 5013.65460 0.9311562 0.0531424
 5018.68009 0.9624643 0.0523847
 5023.70557 0.9875202 0.0518082
 5028.73106 1.0290440 0.0508225
 5033.75655 1.0586975 0.0502613
 5038.78203 1.0731330 0.0499393
 5043.83063 1.0836982 0.0494819
 5048.87867 1.1061217 0.0492222
 5053.92672 1.1193460 0.0487893
 5058.97476 1.1304406 0.0481692
 5064.02281 1.1241395 0.0476480
 5069.09341 1.1196040 0.0470932
 5074.16402 1.1269331 0.0466321
 5079.23462 1.1646622 0.0459865
 5084.32778 1.1869662 0.0451295
 5089.39838 1.2138879 0.0444700
 5094.49155 1.2534907 0.0439301
 5099.58471 1.2960443 0.0432977
 5104.67787 1.3358556 0.0428206
 5109.79304 1.3588169 0.0420653
 5114.90876 1.4141048 0.0417287
 5120.02447 1.4582160 0.0413155
 5125.14019 1.4880551 0.0409720
 5130.25591 1.5500909 0.0405430
 5135.39419 1.5873027 0.0402249
 5140.53247 1.6244552 0.0400738
 5145.67074 1.6510551 0.0398161
 5150.80902 1.6856890 0.0397875
 5155.96931 1.7400345 0.0393429
 5161.13014 1.7909389 0.0392294
 5166.29098 1.8212732 0.0388991
 5171.45181 1.8602268 0.0386900
 5176.61265 1.8707807 0.0380634
 5181.79604 1.8804129 0.0378923
 5186.97888 1.8783610 0.0375990
 5192.16228 1.8624430 0.0374874
 5197.36823 1.8749717 0.0370033
 5202.55162 1.8705715 0.0369275
 5207.75757 1.8522924 0.0366696
 5212.96297 1.8489715 0.0365480
 5218.19148 1.8614531 0.0360025
 5223.39743 1.8623941 0.0358439
 5228.62594 1.8533283 0.0355211
 5233.85390 1.8539582 0.0353247
 5239.08241 1.8533719 0.0347301
 5244.33348 1.8372889 0.0345827
 5249.56144 1.8225729 0.0342979
 5254.81251 1.8265072 0.0340946
 5260.08613 1.8219820 0.0333951
 5265.33665 1.8218766 0.0331170
 5270.61027 1.8116891 0.0328446
 5275.86134 1.8048413 0.0325219
 5281.15697 1.7946303 0.0322281
 5286.43060 1.7952880 0.0321134
 5291.72678 1.7791629 0.0322145
 5296.99986 1.7599031 0.0321901
 5302.29604 1.7349842 0.0322070
 5307.61423 1.7192649 0.0322291
 5312.91042 1.6834627 0.0324550
 5318.22861 1.6603459 0.0322943
 5323.54735 1.6303285 0.0325151
 5328.86609 1.6276273 0.0326835
 5334.20684 1.5921638 0.0325813
 5339.52558 1.5594442 0.0323219
 5344.86633 1.5297638 0.0320548
 5350.23019 1.5092069 0.0318617
 5355.57094 1.4848236 0.0312777
 5360.93479 1.4522110 0.0310632
 5366.27554 1.4245631 0.0308994
 5371.66196 1.3930848 0.0303717
 5377.02527 1.3597862 0.0302874
 5382.41168 1.3519045 0.0300700
 5387.79755 1.3519615 0.0298044
 5393.18341 1.3433729 0.0298163
 5398.56983 1.3318020 0.0296892
 5403.97825 1.3173355 0.0297205
 5409.36467 1.3017306 0.0294263
 5414.77309 1.2712083 0.0295205
 5420.20407 1.2596008 0.0296727
 5425.61304 1.2561049 0.0294709
 5431.04403 1.2447103 0.0296482
 5436.47556 1.2397147 0.0296135
 5441.90654 1.2446551 0.0295729
 5447.36008 1.2387005 0.0297080
 5452.79161 1.2374170 0.0296361
 5458.24515 1.2256099 0.0294849
 5463.72125 1.2252767 0.0294855
 5469.17534 1.2162904 0.0293000
 5474.65143 1.2153752 0.0290353
 5480.12753 1.2035851 0.0288336
 5485.60363 1.1816159 0.0288176
 5491.08028 1.1662484 0.0285425
 5496.57893 1.1610820 0.0283340
 5502.07759 1.1573857 0.0280289
 5507.57624 1.1701962 0.0279490
 5513.07545 1.1691939 0.0277390
 5518.59666 1.1710892 0.0274937
 5524.11787 1.1712029 0.0274696
 5529.63909 1.1748407 0.0273320
 5535.16030 1.1894478 0.0272229
 5540.70462 1.1966090 0.0273596
 5546.24839 1.2083282 0.0273173
 5551.79216 1.2459093 0.0272429
 5557.33594 1.2446846 0.0273387
 5562.90227 1.2503622 0.0270083
 5568.46860 1.2640991 0.0270292
 5574.03492 1.2815074 0.0270515
 5579.60180 1.2958019 0.0269120
 5585.19069 1.3090791 0.0268089
 5590.77958 1.3194535 0.0268840
 5596.36847 1.3259073 0.0267906
 5601.95735 1.3464156 0.0267359
 5607.56880 1.3753279 0.0266661
 5613.18025 1.3885136 0.0265720
 5618.79169 1.4301827 0.0263409
 5624.40314 1.4696060 0.0259045
 5630.03714 1.5062616 0.0258049
 5635.67114 1.5464388 0.0253249
 5641.30515 1.5882702 0.0252381
 5646.93915 1.6179007 0.0249684
 5652.59571 1.6573466 0.0246127
 5658.22972 1.6870084 0.0246327
 5663.88628 1.7062491 0.0243542
 5669.56540 1.7361692 0.0244266
 5675.22196 1.7592493 0.0241377
 5680.90108 1.7794549 0.0239804
 5686.58020 1.8096620 0.0238732
 5692.28187 1.8389266 0.0237811
 5697.96044 1.8489612 0.0238571
 5703.66212 1.8571560 0.0235745
 5709.36380 1.8677552 0.0234732
 5715.08803 1.8878405 0.0234288
 5720.78971 1.8853770 0.0237448
 5726.51395 1.9033045 0.0237716
 5732.23818 1.9095758 0.0234082
 5737.96187 1.9067359 0.0232812
 5743.70866 1.9027787 0.0234727
 5749.45546 1.8842105 0.0237342
 5755.20225 1.8736815 0.0238557
 5760.97160 1.8660845 0.0242237
 5766.71784 1.8432119 0.0243396
 5772.48720 1.8586127 0.0241397
 5778.25655 1.8567313 0.0241742
 5784.04846 1.8482087 0.0235601
 5789.81726 1.8451622 0.0230428
 5795.60917 1.8404427 0.0227012
 5801.40108 1.8365149 0.0219711
 5807.21555 1.8149571 0.0214399
 5813.02946 1.7986579 0.0209950
 5818.82137 1.7980288 0.0206153
 5824.65840 1.7821176 0.0205170
 5830.47232 1.7710874 0.0206622
 5836.30934 1.7611693 0.0207041
 5842.14637 1.7536781 0.0202246
 5847.98284 1.7352690 0.0202188
 5853.84243 1.7193497 0.0202429
 5859.67890 1.7042974 0.0201155
 5865.53849 1.6866733 0.0200470
 5871.42063 1.6730042 0.0200900
 5877.27966 1.6529859 0.0197881
 5883.16180 1.6515632 0.0195814
 5889.04339 1.6367347 0.0195315
 5894.94809 1.6293693 0.0192210
 5900.82969 1.6200835 0.0190694
 5906.73439 1.6121937 0.0189801
 5912.63853 1.5981662 0.0189251
 5918.54323 1.5840334 0.0188744
 5924.46994 1.5835190 0.0187999
 5930.39720 1.5777506 0.0187223
 5936.32391 1.5547054 0.0186224
 5942.27372 1.5406399 0.0185362
 5948.20043 1.5126542 0.0183673
 5954.15025 1.4761668 0.0184414
 5960.09951 1.4231801 0.0184431
 5966.07189 1.3618761 0.0183693
 5972.04371 1.2805628 0.0184557
 5978.01553 1.2030253 0.0186627
 5983.98791 1.1279553 0.0187505
 5989.98229 1.0398694 0.0186888
 5995.95466 0.9689892 0.0187441
 6001.94904 0.9052753 0.0188931
 6007.96598 0.8554485 0.0187715
 6013.96092 0.8090500 0.0187485
 6019.97786 0.7913862 0.0187234
 6025.99480 0.7847894 0.0186968
 6032.03484 0.7925994 0.0186355
 6038.05178 0.8166999 0.0185651
 6044.09128 0.8416244 0.0185055
 6050.15334 0.8799343 0.0183360
 6056.19338 0.9173614 0.0183967
 6062.25544 0.9661192 0.0183282
 6068.31750 1.0078628 0.0182660
 6074.37955 1.0279398 0.0181084
 6080.46472 1.0651872 0.0180755
 6086.54933 1.1013104 0.0181483
 6092.63394 1.1434988 0.0180914
 6098.71856 1.1955907 0.0179204
 6104.82573 1.2320703 0.0178726
 6110.91089 1.2887554 0.0178192
 6117.04062 1.3358665 0.0179023
 6123.14779 1.3826360 0.0177346
 6129.27752 1.4381036 0.0176672
 6135.40725 1.4940175 0.0175809
 6141.53698 1.5521119 0.0174728
 6147.68927 1.5944396 0.0173954
 6153.81900 1.6413296 0.0178517
 6159.97129 1.6752506 0.0174311
 6166.14613 1.7095391 0.0172199
 6172.29897 1.7272267 0.0172875
 6178.47382 1.7284583 0.0174152
 6184.64866 1.7211161 0.0176770
 6190.84607 1.7029837 0.0179466
 6197.04347 1.7103502 0.0182744
 6203.24088 1.7356116 0.0184189
 6209.43828 1.7573352 0.0183620
 6215.63568 1.8032224 0.0182779
 6221.85565 1.8445745 0.0181624
 6228.07561 1.8891377 0.0179842
 6234.31758 1.9318345 0.0177627
 6240.53754 1.9809283 0.0174241
 6246.78006 2.0381219 0.0172864
 6253.04514 2.0860341 0.0170991
 6259.28766 2.1355188 0.0169847
 6265.55273 2.1755562 0.0170735
 6271.81781 2.2224793 0.0172294
 6278.08289 2.2323349 0.0166467
 6284.37053 2.2268214 0.0163886
 6290.65761 2.2207010 0.0162444
 6296.94525 2.1975400 0.0161228
 6303.23288 2.1775265 0.0160159
 6309.54308 2.1559007 0.0160480
 6315.85327 2.1380818 0.0159766
 6322.16347 2.1348567 0.0158079
 6328.49567 2.1171412 0.0157442
 6334.82842 2.1040349 0.0156941
 6341.16117 2.0838723 0.0156627
 6347.49392 2.0620425 0.0157376
 6353.84868 2.0413868 0.0156262
 6360.20399 2.0095279 0.0155759
 6366.55930 1.9964031 0.0154732
 6372.91406 1.9737068 0.0154961
 6379.29193 1.9537375 0.0155174
 6385.66980 1.9392234 0.0155440
 6392.06967 1.9211529 0.0155391
 6398.44754 1.9008930 0.0155122
 6404.84797 1.8867525 0.0154729
 6411.27040 1.8823744 0.0154274
 6417.67083 1.8717517 0.0153561
 6424.09381 1.8665773 0.0152601
 6430.51625 1.8627481 0.0150734
 6436.93923 1.8650596 0.0149970
 6443.38422 1.8766056 0.0150183
 6449.82976 1.8809636 0.0149583
 6456.27531 1.8824080 0.0149286
 6462.74286 1.8821671 0.0149404
 6469.18840 1.8771776 0.0149776
 6475.65595 1.8687963 0.0150413
 6482.14661 1.8620241 0.0154898
 6488.61416 1.8690839 0.0160487
 6495.10482 1.8514327 0.0149446
 6501.61748 1.8540322 0.0149158
 6508.10814 1.8576781 0.0151827
 6514.62081 1.8543350 0.0155640
 6521.13347 1.8579135 0.0160108
 6527.64669 1.8567730 0.0164820
 6534.18191 1.8516829 0.0169155
 6540.71769 1.8604751 0.0172288
 6547.25291 1.8585582 0.0173427
 6553.81069 1.8584594 0.0171283
 6560.36902 1.8681887 0.0166864
 6566.92681 1.8846980 0.0162755
 6573.48459 1.9003413 0.0158343
 6580.06548 1.9172798 0.0154311
 6586.64582 1.9303240 0.0151264
 6593.22616 1.9470851 0.0149901
 6599.82961 1.9620363 0.0152609
 6606.43250 1.9694386 0.0162271
 6613.03540 1.9802185 0.0156817
 6619.63885 1.9872351 0.0152448
 6626.26431 1.9896561 0.0150710
 6632.88976 1.9842688 0.0150768
 6639.51522 1.9695944 0.0151450
 6646.16323 1.9507170 0.0150979
 6652.81180 1.9296484 0.0150430
 6659.45981 1.9110903 0.0149765
 6666.13038 1.8814178 0.0149116
 6672.77840 1.8500108 0.0148517
 6679.44897 1.8206187 0.0148000
 6686.14265 1.8000036 0.0147513
 6692.83578 1.7740043 0.0146127
 6699.52891 1.7593399 0.0145823
 6706.22204 1.7441880 0.0145506
 6712.93773 1.7374955 0.0145203
 6719.63086 1.7317537 0.0145073
 6726.36910 1.7196392 0.0145096
 6733.08479 1.7167809 0.0145075
 6739.82304 1.7268043 0.0144210
 6746.56128 1.7299255 0.0144213
 6753.29953 1.7270623 0.0144173
 6760.06034 1.7370203 0.0144191
 6766.82114 1.7457663 0.0145139
 6773.58194 1.7643350 0.0145233
 6780.36531 1.7780505 0.0145382
 6787.14867 1.7993538 0.0144604
 6793.93203 1.8050551 0.0144712
 6800.71539 1.8137556 0.0144750
 6807.52131 1.8160928 0.0144775
 6814.32723 1.8314108 0.0144647
 6821.15571 1.8261192 0.0143493
 6827.96163 1.8325998 0.0144050
 6834.79011 1.8255910 0.0143699
 6841.64115 1.8250167 0.0143341
 6848.46907 1.8208643 0.0143093
 6855.32011 1.8077734 0.0142002
 6862.17115 1.8086883 0.0141731
 6869.04474 1.8082556 0.0141502
 6875.91834 1.7959827 0.0141372
 6882.79138 1.7974107 0.0142057
 6889.66497 1.8029729 0.0141005
 6896.56113 1.8068136 0.0140827
 6903.45728 1.8143685 0.0140706
 6910.35343 1.8164673 0.0140623
 6917.27159 1.8287795 0.0139736
 6924.19030 1.8332129 0.0140573
 6931.10901 1.8421134 0.0140530
 6938.04973 1.8561705 0.0140435
 6944.99100 1.8606265 0.0139495
 6951.93227 1.8590578 0.0139383
 6958.87298 1.8630269 0.0140004
 6965.83681 1.8634887 0.0139875
 6972.80064 1.8647585 0.0138991
 6979.78647 1.8635685 0.0139015
 6986.75030 1.8611672 0.0139072
 6993.73668 1.8564790 0.0139170
 7000.74508 1.8529861 0.0139239
 7007.75402 1.8400735 0.0139346
 7014.73985 1.8425356 0.0139307
 7021.77135 1.8309309 0.0138324
 7028.77974 1.8169533 0.0138968
 7035.81124 1.8035268 0.0138767
 7042.84220 1.7980036 0.0137799
 7049.89625 1.7947243 0.0137676
 7056.94976 1.7924930 0.0138498
 7064.00382 1.7817436 0.0137614
 7071.05733 1.7738544 0.0137492
 7078.13395 1.7571390 0.0137523
 7085.21001 1.7516943 0.0137635
 7092.30919 1.7389922 0.0137666
 7099.38525 1.7323543 0.0137676
 7106.48388 1.7185646 0.0136859
 7113.60561 1.7140324 0.0137538
 7120.70423 1.7011465 0.0137407
 7127.82597 1.6871063 0.0136536
 7134.96971 1.6753509 0.0137192
 7142.09089 1.6554528 0.0136272
 7149.23518 1.6528220 0.0136112
 7156.40148 1.6342897 0.0136067
 7163.54522 1.6284003 0.0136063
 7170.71152 1.6320512 0.0136057
 7177.87837 1.6235040 0.0136958
 7185.06722 1.6188288 0.0139320
 7192.25608 1.6153268 0.0137025
 7199.44493 1.6101224 0.0135992
 7206.63434 1.6068647 0.0137912
 7213.84576 1.6023896 0.0139633
 7221.05717 1.6028287 0.0140857
 7228.29114 1.6000510 0.0144006
 7235.50256 1.6042238 0.0144861
 7242.73708 1.6009588 0.0146198
 7249.99361 1.5967817 0.0146830
 7257.22758 1.5822544 0.0146605
 7264.50667 1.5768358 0.0144479
 7271.76320 1.5743837 0.0143757
 7279.04229 1.5819809 0.0141777
 7286.32138 1.5851756 0.0139520
 7293.60047 1.5847491 0.0137755
 7300.90211 1.5948100 0.0135711
 7308.20376 1.5905914 0.0136219
 7315.50541 1.5894941 0.0136969
 7322.82961 1.5980667 0.0138786
 7330.15382 1.6031531 0.0135532
 7337.47802 1.6054841 0.0135565
 7344.80222 1.5999767 0.0135579
 7352.14899 1.5970266 0.0135503
 7359.51831 1.5954852 0.0134986
 7366.86507 1.5953872 0.0135289
 7374.23439 1.5855396 0.0134320
 7381.60371 1.5902472 0.0135056
 7388.99559 1.5890464 0.0134507
 7396.38747 1.5915297 0.0135548
 7403.77935 1.6105936 0.0134945
 7411.19378 1.6267717 0.0135142
 7418.58511 1.6389463 0.0135377
 7426.02211 1.6483597 0.0135521
 7433.43654 1.6534725 0.0135521
 7440.87354 1.6628973 0.0135429
 7448.31053 1.6685350 0.0135230
 7455.76954 1.6730809 0.0134128
 7463.22909 1.6748110 0.0134602
 7470.68864 1.6788158 0.0133548
 7478.14819 1.6746081 0.0134074
 7485.62975 1.6717148 0.0133247
 7493.11186 1.6640460 0.0134097
 7500.61653 1.6601722 0.0133753
 7508.12120 1.6517414 0.0133045
 7515.62532 1.6472648 0.0132991
 7523.12999 1.6548005 0.0132959
 7530.65722 1.6504064 0.0132943
 7538.18389 1.6570854 0.0132827
 7545.73368 1.6592550 0.0135080
 7553.28291 1.6609330 0.0133976
 7560.83270 1.6637560 0.0131932
 7568.38248 1.6550107 0.0132094
 7575.95427 1.6461623 0.0133285
 7583.52662 1.6393902 0.0135056
 7591.12097 1.6309965 0.0136691
 7598.71587 1.6166687 0.0138253
 7606.31022 1.6138614 0.0139467
 7613.92768 1.6148192 0.0140181
 7621.54459 1.6090896 0.0140187
 7629.16205 1.6109818 0.0138644
 7636.77895 1.6119975 0.0138415
 7644.41897 1.6113642 0.0136106
 7652.05844 1.6227745 0.0134519
 7659.72046 1.6333709 0.0133863
 7667.38304 1.6399497 0.0132087
 7675.04506 1.6584771 0.0131824
 7682.73019 1.6700208 0.0131771
 7690.39222 1.6857584 0.0135670
 7698.09936 1.6943198 0.0133707
 7705.78449 1.7040491 0.0132457
 7713.49163 1.7059758 0.0133324
 7721.22133 1.7085394 0.0132698
 7728.92902 1.7008675 0.0132965
 7736.65872 1.6965469 0.0132961
 7744.38842 1.6944546 0.0132818
 7752.14068 1.6987090 0.0132767
 7759.89348 1.6905497 0.0132790
 7767.66830 1.6774089 0.0132165
 7775.42056 1.6684395 0.0132978
 7783.19537 1.6607776 0.0133309
 7790.99274 1.6516986 0.0132925
 7798.76811 1.6489223 0.0133182
 7806.56548 1.6401981 0.0134182
 7814.38541 1.6237273 0.0133783
 7822.20534 1.6167035 0.0133847
 7830.02527 1.5971644 0.0133793
 7837.84521 1.5886291 0.0133118
 7845.68769 1.5751303 0.0133916
 7853.53018 1.5730294 0.0133842
 7861.39578 1.5567580 0.0133932
 7869.26083 1.5440181 0.0133284
 7877.12587 1.5381153 0.0133420
 7884.99092 1.5415643 0.0134210
 7892.87853 1.5504014 0.0133553
 7900.76613 1.5560354 0.0133785
 7908.67629 1.5579423 0.0134097
 7916.58646 1.5667862 0.0134471
 7924.49662 1.5727593 0.0134133
 7932.42879 1.5908309 0.0134596
 7940.36151 1.6035697 0.0135770
 7948.29423 1.6099260 0.0136197
 7956.24951 1.6106704 0.0136758
 7964.20479 1.6042284 0.0136568
 7972.18263 1.6102765 0.0136841
 7980.13791 1.6145370 0.0137115
 7988.11574 1.6171067 0.0137470
 7996.11559 1.6201749 0.0137000
 8004.11598 1.6157764 0.0137861
 8012.11638 1.6002842 0.0138051
 8020.11677 1.5890276 0.0138190
 8028.13973 1.5784053 0.0138305
 8036.16213 1.5643826 0.0138396
 8044.20764 1.5514600 0.0139948
 8052.25315 1.5374258 0.0139282
 8060.32067 1.5137483 0.0137789
 8068.36618 1.4996746 0.0137855
 8076.43425 1.4783770 0.0138830
 8084.52433 1.4706405 0.0140236
 8092.59240 1.4546920 0.0141152
 8100.68302 1.4257522 0.0142753
 8108.79566 1.4146094 0.0144201
 8116.90884 1.3955083 0.0145504
 8125.02203 1.3897063 0.0145902
 8133.15722 1.3835610 0.0145870
 8141.27041 1.3757657 0.0145450
 8149.42816 1.3772447 0.0144693
 8157.56390 1.3707505 0.0143815
 8165.72165 1.3600882 0.0142281
 8173.90251 1.3561091 0.0141762
 8182.06026 1.3573762 0.0141292
 8190.24112 1.3625945 0.0142029
 8198.44399 1.3688308 0.0144944
 8206.64740 1.3742934 0.0145103
 8214.85027 1.3832687 0.0144391
 8223.07625 1.3955075 0.0145317
 8231.27911 1.4047222 0.0146219
 8239.52710 1.4208294 0.0147159
 8247.75307 1.4317193 0.0147904
 8256.00105 1.4400651 0.0148537
 8264.27160 1.4587849 0.0149235
 8272.52013 1.4598742 0.0150129
 8280.81323 1.4695898 0.0151120
 8289.08377 1.4814039 0.0153187
 8297.37742 1.4919016 0.0153683
 8305.67052 1.5010189 0.0153131
 8313.98617 1.5143687 0.0155262
 8322.27927 1.5147735 0.0159246
 8330.61804 1.5285151 0.0164722
 8338.93370 1.5374752 0.0169064
 8347.29447 1.5367632 0.0174279
 8355.63268 1.5475184 0.0178991
 8363.99346 1.5599499 0.0182739
 8372.35478 1.5662777 0.0184903
 8380.71555 1.5490122 0.0185595
 8389.09889 1.5392640 0.0184668
 8397.50477 1.5442674 0.0182517
 8405.88811 1.5347594 0.0179378
 8414.29400 1.5295935 0.0176052
 8422.72244 1.5235808 0.0173211
 8431.12833 1.5182987 0.0171237
 8439.57934 1.5097616 0.0170961
 8448.00778 1.5084670 0.0172771
 8456.45879 1.5055468 0.0170745
 8464.90979 1.5016834 0.0167768
 8473.38336 1.4980294 0.0166170
 8481.85692 1.4810270 0.0164511
 8490.33048 1.4664935 0.0163530
 8498.82661 1.4545507 0.0160674
 8507.32273 1.4441117 0.0158186
 8515.84141 1.4421448 0.0155965
 8524.33753 1.4251140 0.0153832
 8532.87876 1.4059393 0.0151601
 8541.39744 1.3828650 0.0149553
 8549.93813 1.3730607 0.0147236
 8558.50193 1.3745222 0.0144870
 8567.06572 1.3613416 0.0142597
 8575.62952 1.3697315 0.0140338
 8584.19331 1.3750111 0.0138192
 8592.77912 1.3691341 0.0136111
 8601.38803 1.3707062 0.0134014
 8609.97438 1.3645612 0.0132070
 8618.58329 1.3594176 0.0130282
 8627.21421 1.3632675 0.0128565
 8635.84568 1.3609395 0.0126329
 8644.47715 1.3594691 0.0125112
 8653.10807 1.3645102 0.0124167
 8661.76210 1.3696353 0.0122732
 8670.43868 1.3775907 0.0121619
 8679.11472 1.3867218 0.0120609
 8687.79130 1.3916472 0.0122597
 8696.46734 1.4067683 0.0119553
