# SOURCE  = 'Quimby et al. 2018' /                                                
# OBJECT  = 'PTF10hgi'           /                                                
# Z       =            0.0982000 / wavelengths in OBSERVER FRAME                 
# NORM    =          1.18580E-16 / fluxes divided by norm                         
# CLIPPED =                    1 / galaxy emission lines removed                  
# SMOOTHED=                    1 / spectrum has been smoothed                     
# COLUMN01= 'Wavelength (Angstrom)' /                                             
# COLUMN02= 'Flux Density (erg/s/cm2/A)' /                                        
# COLUMN03= 'Flux Density Uncertainty (erg/s/cm2/A)' /                            
# END                                                                             
# 
# 
# 
# 
# 
# 
# 
# 
# 
# 
# Converted to Observer Frame using z=0.0982
 3845.17943 2.7367504 0.0475049
 3849.02664 2.7399848 0.0399243
 3852.87385 2.7339671 0.0336831
 3856.72135 2.7270670 0.0291229
 3860.58063 2.7196608 0.0258400
 3864.43991 2.7129405 0.0230137
 3868.31126 2.7042422 0.0206638
 3872.17054 2.7014647 0.0189830
 3876.04218 2.6857150 0.0177632
 3879.92561 2.6764622 0.0167016
 3883.79696 2.6676092 0.0158192
 3887.69246 2.6554730 0.0151430
 3891.57588 2.6538081 0.0146372
 3895.47138 2.6418188 0.0141592
 3899.36687 2.6342564 0.0137492
 3903.26237 2.6292665 0.0134145
 3907.16994 2.6238174 0.0131028
 3911.07751 2.6182446 0.0128634
 3914.98507 2.6116540 0.0126093
 3918.90471 2.5995703 0.0124542
 3922.82435 2.5972843 0.0123475
 3926.74400 2.5847392 0.0122428
 3930.66364 2.5772831 0.0121763
 3934.59535 2.5699079 0.0120750
 3938.53913 2.5624776 0.0120113
 3942.47085 2.5583675 0.0119127
 3946.41463 2.5605545 0.0118158
 3950.35842 2.5570848 0.0117554
 3954.31427 2.5609124 0.0116611
 3958.27013 2.5678470 0.0116030
 3962.22599 2.5754628 0.0115109
 3966.19392 2.5809007 0.0114200
 3970.14948 2.5784633 0.0113838
 3974.12948 2.5901995 0.0112949
 3978.09741 2.6001489 0.0112071
 3982.07741 2.6065421 0.0111537
 3986.05741 2.6151581 0.0110678
 3990.04919 2.6166613 0.0109830
 3994.04127 2.6210320 0.0109320
 3998.03334 2.6274478 0.0108489
 4002.02541 2.6301663 0.0107667
 4006.02927 2.6372449 0.0107370
 4010.03341 2.6434107 0.0106566
 4014.04963 2.6536243 0.0105773
 4018.06585 2.6592605 0.0105307
 4022.08177 2.6680281 0.0104533
 4026.09799 2.6730976 0.0103771
 4030.12628 2.6792305 0.0103211
 4034.15428 2.6874802 0.0102779
 4038.19464 2.6950152 0.0102048
 4042.23471 2.7041886 0.0101330
 4046.27507 2.7157171 0.0100931
 4050.31543 2.7177987 0.0100421
 4054.36757 2.7214541 0.0099738
 4058.42001 2.7260518 0.0099068
 4062.48422 2.7372165 0.0098709
 4066.54873 2.7386854 0.0098063
 4070.61294 2.7470584 0.0097618
 4074.68952 2.7512355 0.0097000
 4078.76580 2.7539582 0.0096396
 4082.84238 2.7619195 0.0096095
 4086.91867 2.7612846 0.0095996
 4091.00732 2.7691627 0.0095286
 4095.09568 2.7694459 0.0094650
 4099.19611 2.7694020 0.0094268
 4103.29683 2.7721326 0.0094023
 4107.39726 2.7783945 0.0093539
 4111.51006 2.7764287 0.0093287
 4115.61048 2.7775362 0.0092871
 4119.73506 2.7734187 0.0092479
 4123.84785 2.7691457 0.0092571
 4127.97243 2.7761724 0.0092215
 4132.10907 2.7760568 0.0091870
 4136.23394 2.7765222 0.0091739
 4140.37059 2.7797501 0.0091412
 4144.50723 2.7770534 0.0091092
 4148.65595 2.7810156 0.0090985
 4152.80496 2.7766080 0.0090935
 4156.96575 2.7810383 0.0090829
 4161.11447 2.7812083 0.0090519
 4165.27526 2.7815406 0.0090213
 4169.44812 2.7854264 0.0090135
 4173.60921 2.7863512 0.0089845
 4177.78207 2.7884705 0.0089779
 4181.96701 2.7901373 0.0089514
 4186.15194 2.7896192 0.0089490
 4190.33688 2.7903612 0.0089266
 4194.52181 2.7842469 0.0089310
 4198.71882 2.7846327 0.0089567
 4202.91582 2.7784173 0.0089335
 4207.12520 2.7748146 0.0089440
 4211.33428 2.7694328 0.0089409
 4215.54336 2.7576759 0.0089741
 4219.75244 2.7471690 0.0089526
 4223.97359 2.7392240 0.0089806
 4228.19474 2.7318900 0.0089869
 4232.42796 2.7283893 0.0090197
 4236.66119 2.7164755 0.0090297
 4240.89441 2.7112844 0.0090662
 4245.13941 2.7058539 0.0091027
 4249.38471 2.7028592 0.0091137
 4253.63000 2.6935196 0.0091506
 4257.88737 2.6875522 0.0091597
 4262.14474 2.6915133 0.0091942
 4266.41418 2.6901901 0.0092000
 4270.67155 2.6961701 0.0092541
 4274.94099 2.7000313 0.0092696
 4279.22220 2.6935599 0.0092631
 4283.50372 2.6924956 0.0092870
 4287.78523 2.6952696 0.0092868
 4292.06674 2.7015219 0.0093151
 4296.36033 2.7037182 0.0093458
 4300.65362 2.7009256 0.0093514
 4304.95927 2.7023630 0.0093869
 4309.26493 2.7062213 0.0094258
 4313.58236 2.7094002 0.0094397
 4317.88802 2.7088864 0.0094578
 4322.20575 2.6991110 0.0094542
 4326.53526 2.6838083 0.0094470
 4330.85299 2.6719966 0.0094624
 4335.18279 2.6622870 0.0094725
 4339.52437 2.6521254 0.0094493
 4343.86624 2.6430752 0.0094475
 4348.20811 2.6328013 0.0094417
 4352.56176 2.6178515 0.0094300
 4356.90364 2.6059010 0.0093888
 4361.26936 2.5949359 0.0093719
 4365.62331 2.5893540 0.0093202
 4369.98903 2.5850222 0.0093001
 4374.36712 2.5780807 0.0092554
 4378.73284 2.5692258 0.0092406
 4383.11093 2.5588100 0.0092319
 4387.50080 2.5466337 0.0091823
 4391.89096 2.5422356 0.0091528
 4396.28083 2.5471201 0.0090964
 4400.68307 2.5477769 0.0090404
 4405.07293 2.5443187 0.0089935
 4409.48695 2.5446830 0.0089522
 4413.88918 2.5545418 0.0089150
 4418.30319 2.5578902 0.0088760
 4422.72928 2.5544705 0.0087997
 4427.14358 2.5582442 0.0087564
 4431.58174 2.5680165 0.0087202
 4436.00783 2.5692782 0.0086866
 4440.44628 2.5707748 0.0086202
 4444.88443 2.5767126 0.0085875
 4449.33466 2.5825026 0.0085503
 4453.77282 2.5849831 0.0085108
 4458.23541 2.5835330 0.0084308
 4462.68564 2.5861392 0.0083567
 4467.16002 2.5874093 0.0083022
 4471.62232 2.5843785 0.0082400
 4476.09669 2.5745177 0.0081448
 4480.57136 2.5753448 0.0080839
 4485.04573 2.5709138 0.0080223
 4489.53218 2.5692284 0.0079680
 4494.03070 2.5745721 0.0078882
 4498.51714 2.5651827 0.0078532
 4503.01566 2.5533326 0.0077841
 4507.52625 2.5415959 0.0077128
 4512.02477 2.5326869 0.0076817
 4516.54743 2.5160599 0.0076623
 4521.05802 2.5017891 0.0075845
 4525.58068 2.4835441 0.0075570
 4530.10334 2.4574869 0.0075329
 4534.63808 2.4352932 0.0074810
 4539.17281 2.4132831 0.0074627
 4543.70755 2.3936820 0.0074485
 4548.25435 2.3680329 0.0074323
 4552.80116 2.3518162 0.0074253
 4557.36004 2.3398116 0.0074224
 4561.90684 2.3294382 0.0073701
 4566.47780 2.3200014 0.0073472
 4571.03667 2.3181751 0.0073296
 4575.60733 2.3132434 0.0072913
 4580.19035 2.3197310 0.0073108
 4584.77338 2.3233385 0.0073083
 4589.35640 2.3221130 0.0073112
 4593.93942 2.3222358 0.0072920
 4598.53422 2.3132880 0.0073052
 4603.14139 2.3114507 0.0073233
 4607.73649 2.3094182 0.0073170
 4612.34365 2.3100145 0.0073675
 4616.96260 2.3047574 0.0073975
 4621.58184 2.2982237 0.0074310
 4626.20108 2.2895010 0.0074374
 4630.82003 2.2838886 0.0074757
 4635.45134 2.2793057 0.0075162
 4640.09472 2.2821395 0.0075582
 4644.73781 2.2823951 0.0076013
 4649.38120 2.2897987 0.0076139
 4654.02429 2.2933350 0.0076575
 4658.67974 2.2994850 0.0077006
 4663.33490 2.3102298 0.0077428
 4668.00243 2.3212371 0.0078086
 4672.66967 2.3276711 0.0078156
 4677.34927 2.3337338 0.0078519
 4682.01650 2.3373172 0.0078853
 4686.70818 2.3435791 0.0079151
 4691.38748 2.3598447 0.0079410
 4696.07915 2.3708200 0.0079624
 4700.78261 2.3838842 0.0079767
 4705.48635 2.3918133 0.0082220
 4710.18980 2.3945360 0.0080069
 4714.89325 2.4001119 0.0079667
 4719.60907 2.4045179 0.0079816
 4724.33667 2.4153790 0.0080591
 4729.05219 2.4254484 0.0081475
 4733.79215 2.4345777 0.0082298
 4738.51975 2.4533379 0.0082917
 4743.25941 2.4682350 0.0083216
 4747.99937 2.4829485 0.0083118
 4752.75111 2.4989097 0.0082451
 4757.50285 2.5089395 0.0081161
 4762.26667 2.5221312 0.0079858
 4767.01870 2.5284996 0.0078372
 4771.79458 2.5371199 0.0076830
 4776.55840 2.5512054 0.0075362
 4781.33428 2.5529039 0.0073806
 4786.12224 2.5568368 0.0072992
 4790.91019 2.5627823 0.0072889
 4795.69815 2.5664833 0.0073467
 4800.49847 2.5666871 0.0071190
 4805.29850 2.5648825 0.0070570
 4810.09853 2.5590250 0.0069668
 4814.91063 2.5506921 0.0069063
 4819.72273 2.5342095 0.0068468
 4824.54690 2.5221622 0.0068084
 4829.37108 2.5055280 0.0067518
 4834.19525 2.4797168 0.0066704
 4839.03150 2.4557438 0.0066183
 4843.86774 2.4310915 0.0065684
 4848.71606 2.4018693 0.0065210
 4853.56438 2.3712595 0.0064761
 4858.42447 2.3467240 0.0064084
 4863.27279 2.3248148 0.0063685
 4868.14525 2.3099117 0.0063310
 4873.01771 2.2935793 0.0062960
 4877.89017 2.2816789 0.0062596
 4882.76263 2.2714179 0.0062294
 4887.64687 2.2615144 0.0062016
 4892.53141 2.2576959 0.0061536
 4897.42801 2.2548513 0.0061307
 4902.32462 2.2572360 0.0061321
 4907.22123 2.2554829 0.0061597
 4912.12961 2.2588897 0.0060765
 4917.05036 2.2622018 0.0060611
 4921.95904 2.2643197 0.0060746
 4926.89157 2.2622776 0.0060842
 4931.81232 2.2679601 0.0061226
 4936.74514 2.2728646 0.0061634
 4941.67796 2.2748308 0.0061975
 4946.62227 2.2807999 0.0062226
 4951.56717 2.2934504 0.0062125
 4956.52443 2.3006947 0.0062281
 4961.48110 2.3110254 0.0062066
 4966.43777 2.3206897 0.0061508
 4971.40681 2.3253510 0.0061124
 4976.37585 2.3262570 0.0060719
 4981.35667 2.3314922 0.0060372
 4986.33749 2.3345959 0.0059982
 4991.31830 2.3357935 0.0059979
 4996.31149 2.3361948 0.0060648
 5001.31645 2.3348382 0.0061136
 5006.30963 2.3338318 0.0060340
 5011.32696 2.3264744 0.0060481
 5016.33192 2.3138659 0.0060600
 5021.34925 2.2984877 0.0060528
 5026.36599 2.2910287 0.0060862
 5031.39510 2.2782116 0.0060785
 5036.42479 2.2600348 0.0060900
 5041.46568 2.2422907 0.0061024
 5046.50715 2.2312522 0.0061126
 5051.56040 2.2153621 0.0061233
 5056.60187 2.1993959 0.0061316
 5061.66690 2.1857967 0.0061186
 5066.72015 2.1710219 0.0061458
 5071.78577 2.1562669 0.0061299
 5076.86316 2.1455445 0.0061339
 5081.94056 2.1288891 0.0061349
 5087.01795 2.1161373 0.0061145
 5092.10771 2.1091130 0.0061329
 5097.19689 2.1084714 0.0061090
 5102.29843 2.1040213 0.0061032
 5107.39997 2.0990112 0.0060964
 5112.51387 2.0973969 0.0060869
 5117.62719 2.0977619 0.0060770
 5122.74110 2.0987329 0.0060639
 5127.86678 2.0937099 0.0060300
 5132.99246 2.0873525 0.0060349
 5138.12992 2.0815489 0.0059980
 5143.26797 2.0833869 0.0059791
 5148.40544 2.0768981 0.0059607
 5153.55526 2.0690444 0.0059390
 5158.70509 2.0637646 0.0058978
 5163.86729 2.0548913 0.0058943
 5169.02889 2.0464423 0.0058514
 5174.20287 2.0350175 0.0058249
 5179.37684 2.0259414 0.0057977
 5184.55081 2.0225463 0.0057729
 5189.73656 2.0196390 0.0057440
 5194.93468 2.0190635 0.0056974
 5200.12102 2.0169296 0.0056676
 5205.33091 2.0147481 0.0056575
 5210.52903 2.0156622 0.0056102
 5215.73892 2.0090475 0.0055798
 5220.96119 2.0021553 0.0055334
 5226.18345 1.9949368 0.0055230
 5231.40571 1.9891820 0.0054939
 5236.63975 1.9830267 0.0054499
 5241.87379 1.9783363 0.0054230
 5247.12019 1.9655584 0.0053976
 5252.36660 1.9551816 0.0053582
 5257.61300 1.9453058 0.0053551
 5262.87119 1.9384049 0.0053357
 5268.14174 1.9385560 0.0053029
 5273.39992 1.9344312 0.0052891
 5278.68225 1.9356114 0.0052785
 5283.95280 1.9345776 0.0052714
 5289.23513 1.9360471 0.0052513
 5294.52982 1.9401975 0.0052675
 5299.82452 1.9448690 0.0052716
 5305.13099 1.9458650 0.0052632
 5310.42569 1.9498909 0.0052758
 5315.74394 1.9525667 0.0053523
 5321.06277 1.9562554 0.0053241
 5326.38161 1.9612027 0.0053417
 5331.69986 1.9639801 0.0053694
 5337.04285 1.9647030 0.0054343
 5342.37346 1.9621565 0.0055116
 5347.71645 1.9577092 0.0055952
 5353.07121 1.9532166 0.0056797
 5358.41419 1.9497474 0.0057389
 5363.78073 1.9553093 0.0058104
 5369.13549 1.9571964 0.0058687
 5374.51440 1.9498647 0.0059124
 5379.88153 1.9475262 0.0059432
 5385.27280 1.9390441 0.0059631
 5390.65171 1.9346972 0.0059760
 5396.04239 1.9323124 0.0059685
 5401.44544 1.9278315 0.0059853
 5406.83671 1.9212811 0.0060176
 5412.25154 1.9190691 0.0060810
 5417.65459 1.9204988 0.0062049
 5423.08178 1.9237062 0.0061432
 5428.49720 1.9279414 0.0061748
 5433.92440 1.9304441 0.0062004
 5439.36337 1.9315039 0.0062007
 5444.80293 1.9392924 0.0062123
 5450.25427 1.9472826 0.0062167
 5455.69324 1.9583026 0.0062138
 5461.15695 1.9706107 0.0062036
 5466.62006 1.9862133 0.0061863
 5472.08377 1.9954062 0.0061623
 5477.55866 2.0037024 0.0061104
 5483.03415 2.0113094 0.0060740
 5488.52200 2.0142956 0.0060324
 5494.00926 2.0159054 0.0059863
 5499.49711 2.0161977 0.0059362
 5504.99615 2.0120459 0.0058613
 5510.50814 2.0034821 0.0058053
 5516.01955 1.9972726 0.0057472
 5521.53154 1.9856136 0.0056878
 5527.05472 1.9770346 0.0056275
 5532.57850 1.9658406 0.0055458
 5538.11464 1.9549344 0.0054858
 5543.65019 1.9454148 0.0054267
 5549.19810 1.9389162 0.0053823
 5554.74543 1.9269564 0.0053069
 5560.30571 1.9177631 0.0052537
 5565.86541 1.9083714 0.0052034
 5571.42510 1.9029241 0.0051381
 5576.99716 1.8980935 0.0050944
 5582.58100 1.8929602 0.0050542
 5588.16543 1.8851916 0.0050129
 5593.74927 1.8781170 0.0049796
 5599.34547 1.8711497 0.0049495
 5604.94109 1.8635497 0.0049062
 5610.54907 1.8557796 0.0048819
 5616.15765 1.8457745 0.0048602
 5621.77741 1.8324844 0.0048389
 5627.39776 1.8220987 0.0048216
 5633.02989 1.8091396 0.0047911
 5638.65024 1.7950932 0.0047774
 5644.29414 1.7822403 0.0047785
 5649.93864 1.7708026 0.0047522
 5655.59491 1.7524670 0.0047416
 5661.25118 1.7348140 0.0047167
 5666.90745 1.7175589 0.0047202
 5672.57609 1.7017843 0.0046957
 5678.24473 1.6875627 0.0046853
 5683.92515 1.6769114 0.0046736
 5689.60556 1.6652128 0.0046619
 5695.29776 1.6488695 0.0046353
 5701.00232 1.6388229 0.0046355
 5706.69510 1.6321121 0.0046072
 5712.39966 1.6258630 0.0045929
 5718.11659 1.6211160 0.0045764
 5723.83293 1.6144837 0.0045611
 5729.56163 1.6077954 0.0045314
 5735.29034 1.6036315 0.0045288
 5741.03141 1.5989751 0.0044997
 5746.76012 1.5968450 0.0044854
 5752.51297 1.5976889 0.0044707
 5758.26523 1.5983382 0.0044584
 5764.03044 1.5953277 0.0044464
 5769.79507 1.5969753 0.0044240
 5775.56029 1.5948125 0.0044292
 5781.33728 1.5968971 0.0044240
 5787.11428 1.5966953 0.0044158
 5792.90305 1.6004486 0.0044090
 5798.69182 1.6022600 0.0044008
 5804.49296 1.5993572 0.0044261
 5810.30646 1.6009789 0.0044337
 5816.11938 1.6033584 0.0044596
 5821.93230 1.6045740 0.0044861
 5827.74580 1.6040268 0.0045173
 5833.58286 1.6000254 0.0045345
 5839.40815 1.5962397 0.0045671
 5845.24521 1.5904717 0.0046099
 5851.09463 1.5888191 0.0046256
 5856.94406 1.5802550 0.0046561
 5862.80527 1.5763603 0.0046932
 5868.66647 1.5732237 0.0047416
 5874.54004 1.5647737 0.0047368
 5880.41362 1.5603603 0.0047769
 5886.28719 1.5520351 0.0048424
 5892.18432 1.5484172 0.0049221
 5898.07025 1.5429225 0.0050151
 5903.96738 1.5407692 0.0050646
 5909.87746 1.5412509 0.0051479
 5915.78696 1.5425626 0.0052246
 5921.69645 1.5462937 0.0052861
 5927.63009 1.5526119 0.0053382
 5933.55195 1.5588911 0.0053791
 5939.48559 1.5658878 0.0053906
 5945.43160 1.5709485 0.0054105
 5951.36523 1.5775243 0.0054247
 5957.32302 1.5850530 0.0054209
 5963.28080 1.5911375 0.0054551
 5969.23858 1.5914602 0.0054966
 5975.20873 1.6016461 0.0055642
 5981.19066 1.6130971 0.0056318
 5987.17259 1.6184163 0.0055973
 5993.15451 1.6254792 0.0056808
 5999.14881 1.6236105 0.0056967
 6005.15488 1.6189517 0.0056894
 6011.16095 1.6176286 0.0057243
 6017.16702 1.6138223 0.0057721
 6023.18487 1.6088096 0.0058238
 6029.20331 1.6014520 0.0058754
 6035.23353 1.5913960 0.0058953
 6041.27552 1.5841745 0.0059215
 6047.31811 1.5772390 0.0059312
 6053.36010 1.5714660 0.0059200
 6059.41446 1.5639642 0.0058925
 6065.46882 1.5608394 0.0058510
 6071.53496 1.5650897 0.0057999
 6077.61346 1.5683407 0.0057285
 6083.69197 1.5787621 0.0056763
 6089.78284 1.5880280 0.0056049
 6095.86135 1.5944763 0.0055511
 6101.96400 1.5975394 0.0055127
 6108.06606 1.5942417 0.0055007
 6114.16871 1.5877310 0.0054425
 6120.28372 1.5892755 0.0053741
 6126.40993 1.5944203 0.0053314
 6132.53672 1.5925740 0.0052884
 6138.66351 1.5890822 0.0052454
 6144.80209 1.5844343 0.0052028
 6150.95302 1.5802736 0.0051611
 6157.10396 1.5798333 0.0051045
 6163.25490 1.5782779 0.0050659
 6169.41762 1.5750809 0.0050294
 6175.59270 1.5659897 0.0049950
 6181.76778 1.5627205 0.0049631
 6187.95464 1.5615629 0.0049190
 6194.14150 1.5621637 0.0048923
 6200.32836 1.5641593 0.0048679
 6206.53996 1.5645813 0.0048456
 6212.73860 1.5630991 0.0048110
 6218.95019 1.5621578 0.0047918
 6225.17297 1.5626622 0.0047735
 6231.39634 1.5711535 0.0047417
 6237.63149 1.5744667 0.0047358
 6243.86664 1.5748715 0.0047169
 6250.11416 1.5754027 0.0046967
 6256.36109 1.5760138 0.0046606
 6262.62097 1.5737365 0.0046362
 6268.88026 1.5680482 0.0046090
 6275.15133 1.5663437 0.0045637
 6281.42299 1.5596056 0.0046157
 6287.70643 1.5533746 0.0044958
 6294.00224 1.5473053 0.0044389
 6300.28567 1.5426171 0.0044063
 6306.59326 1.5364217 0.0043524
 6312.90084 1.5297096 0.0043287
 6319.20842 1.5221518 0.0042761
 6325.52778 1.5144789 0.0042307
 6331.85951 1.5037005 0.0041743
 6338.19124 1.4944935 0.0040952
 6344.52296 1.4846356 0.0040118
 6350.86706 1.4735812 0.0038996
 6357.22293 1.4592018 0.0037955
 6363.57880 1.4499644 0.0036802
 6369.94645 1.4389983 0.0035749
 6376.31469 1.4305991 0.0034607
 6382.69411 1.4204997 0.0033701
 6389.07413 1.4098274 0.0033185
 6395.46651 1.4012877 0.0032115
 6401.85831 1.3934232 0.0031895
 6408.26247 1.3841251 0.0031198
 6414.66663 1.3765389 0.0030475
 6421.08257 1.3700322 0.0030248
 6427.51087 1.3630699 0.0030196
 6433.93917 1.3544302 0.0030259
 6440.36748 1.3459316 0.0030391
 6446.80756 1.3382190 0.0030427
 6453.26001 1.3290149 0.0030553
 6459.71246 1.3237206 0.0030497
 6466.17669 1.3189744 0.0030255
 6472.62914 1.3143927 0.0029934
 6479.10573 1.3091010 0.0030181
 6485.59410 1.3018566 0.0029491
 6492.07069 1.2936616 0.0029191
 6498.57084 1.2916543 0.0029138
 6505.05980 1.2873615 0.0029402
 6511.57232 1.2827432 0.0030047
 6518.08483 1.2787718 0.0029911
 6524.59735 1.2754771 0.0030470
 6531.12223 1.2692914 0.0030737
 6537.65889 1.2651218 0.0030580
 6544.19555 1.2617213 0.0030783
 6550.74458 1.2587361 0.0030769
 6557.29302 1.2534122 0.0030544
 6563.85441 1.2511494 0.0030312
 6570.41522 1.2493103 0.0030023
 6576.98780 1.2437077 0.0029674
 6583.56097 1.2417513 0.0029321
 6590.14592 1.2367769 0.0028949
 6596.73087 1.2303034 0.0028729
 6603.32818 1.2241240 0.0028592
 6609.93728 1.2156185 0.0028175
 6616.54637 1.2095754 0.0027882
 6623.16724 1.2041169 0.0027532
 6629.78870 1.1948532 0.0027607
 6636.42194 1.1840041 0.0027038
 6643.05518 1.1754076 0.0026740
 6649.70019 1.1675386 0.0026550
 6656.34580 1.1599473 0.0026516
 6663.00318 1.1528299 0.0026785
 6669.66056 1.1465225 0.0026592
 6676.32972 1.1418759 0.0026643
 6683.01125 1.1414694 0.0026878
 6689.69277 1.1424130 0.0027102
 6696.38608 1.1429536 0.0027409
 6703.07997 1.1443034 0.0027562
 6709.78564 1.1494133 0.0027773
 6716.50309 1.1538583 0.0027950
 6723.20876 1.1591859 0.0028096
 6729.93858 1.1649280 0.0028177
 6736.66781 1.1682618 0.0028195
 6743.40999 1.1735015 0.0028435
 6750.15158 1.1751148 0.0028971
 6756.89317 1.1751566 0.0029500
 6763.65950 1.1768852 0.0029318
 6770.42524 1.1765957 0.0029733
 6777.19098 1.1751403 0.0030292
 6783.96908 1.1719266 0.0031043
 6790.74718 1.1647021 0.0032106
 6797.53707 1.1551507 0.0032363
 6804.33932 1.1490916 0.0032851
 6811.14098 1.1466744 0.0033456
 6817.95559 1.1363726 0.0033952
 6824.78140 1.1286070 0.0034353
 6831.59601 1.1174990 0.0034658
 6838.43418 1.1036954 0.0034875
 6845.27235 1.0884109 0.0034959
 6852.11052 1.0704480 0.0035167
 6858.97284 1.0564378 0.0035211
 6865.82338 1.0419867 0.0035381
 6872.69747 1.0299970 0.0035674
 6879.57215 1.0178154 0.0036232
 6886.44683 1.0090659 0.0035981
 6893.33329 1.0029022 0.0036077
 6900.23153 0.9971746 0.0036000
 6907.13036 0.9912540 0.0035922
 6914.04096 0.9891106 0.0035748
 6920.95157 0.9894713 0.0035364
 6927.87395 0.9940447 0.0034994
 6934.79692 1.0042764 0.0034541
 6941.73167 1.0163283 0.0033901
 6948.67819 1.0270053 0.0033387
 6955.62531 1.0367584 0.0032774
 6962.58420 1.0392326 0.0032033
 6969.54310 1.0464875 0.0031412
