# SOURCE  = 'Quimby et al. 2018' /                                                
# OBJECT  = 'PTF10hgi'           /                                                
# Z       =            0.0982000 / wavelengths in OBSERVER FRAME                 
# NORM    =            0.0747862 / fluxes divided by norm                         
# CLIPPED =                    1 / galaxy emission lines removed                  
# SMOOTHED=                    1 / spectrum has been smoothed                     
# COLUMN01= 'Wavelength (Angstrom)' /                                             
# COLUMN02= 'Flux Density (erg/s/cm2/A)' /                                        
# COLUMN03= 'Flux Density Uncertainty (erg/s/cm2/A)' /                            
# END                                                                             
# 
# 
# 
# 
# 
# 
# 
# 
# 
# 
# Converted to Observer Frame using z=0.0982
 3982.07741 1.6352063 0.0971070
 3986.05741 1.6402186 0.0971225
 3990.04919 1.6169349 0.0963639
 3994.04127 1.5994794 0.0958380
 3998.03334 1.5899667 0.0954898
 4002.02541 1.5960531 0.0958956
 4006.02927 1.5932851 0.0956135
 4010.03341 1.5887793 0.0953763
 4014.04963 1.5887728 0.0950646
 4018.06585 1.6011654 0.0948782
 4022.08177 1.6065006 0.0943778
 4026.09799 1.5873387 0.0936566
 4030.12628 1.5859559 0.0927707
 4034.15428 1.5749288 0.0928718
 4038.19464 1.5720448 0.0916790
 4042.23471 1.5602489 0.0903481
 4046.27507 1.5413970 0.0889336
 4050.31543 1.5292305 0.0886253
 4054.36757 1.5288157 0.0871370
 4058.42001 1.5199915 0.0855995
 4062.48422 1.5196983 0.0836312
 4066.54873 1.5397238 0.0821157
 4070.61294 1.5387325 0.0817386
 4074.68952 1.5388447 0.0803041
 4078.76580 1.5702747 0.0789960
 4082.84238 1.5779077 0.0777959
 4086.91867 1.6007501 0.0776079
 4091.00732 1.6064811 0.0768182
 4095.09568 1.6000847 0.0761757
 4099.19611 1.6030847 0.0755551
 4103.29683 1.5906019 0.0746292
 4107.39726 1.6027396 0.0745144
 4111.51006 1.5951819 0.0738421
 4115.61048 1.5948699 0.0729463
 4119.73506 1.5967070 0.0721857
 4123.84785 1.6056945 0.0714798
 4127.97243 1.6023854 0.0715450
 4132.10907 1.6184666 0.0703980
 4136.23394 1.6139637 0.0696604
 4140.37059 1.6268657 0.0690044
 4144.50723 1.6184787 0.0683140
 4148.65595 1.6250681 0.0683790
 4152.80496 1.6122705 0.0677150
 4156.96575 1.6125098 0.0670502
 4161.11447 1.6165330 0.0663998
 4165.27526 1.6191869 0.0657717
 4169.44812 1.6129664 0.0658960
 4173.60921 1.6167084 0.0653023
 4177.78207 1.6153815 0.0646938
 4181.96701 1.5971591 0.0641127
 4186.15194 1.5973338 0.0635135
 4190.33688 1.6098590 0.0636265
 4194.52181 1.6256359 0.0630501
 4198.71882 1.6188644 0.0625025
 4202.91582 1.6304238 0.0619684
 4207.12520 1.6174119 0.0614782
 4211.33428 1.6238520 0.0610025
 4215.54336 1.6085213 0.0611677
 4219.75244 1.6119723 0.0606428
 4223.97359 1.6144053 0.0601675
 4228.19474 1.6089432 0.0596175
 4232.42796 1.5993950 0.0597233
 4236.66119 1.6019533 0.0587584
 4240.89441 1.6105272 0.0587950
 4245.13941 1.5935881 0.0581637
 4249.38471 1.5946010 0.0576385
 4253.63000 1.5995914 0.0571988
 4257.88737 1.5908046 0.0569051
 4262.14474 1.5796711 0.0567125
 4266.41418 1.5813879 0.0563701
 4270.67155 1.5858070 0.0565433
 4274.94099 1.5983412 0.0560824
 4279.22220 1.6006614 0.0556930
 4283.50372 1.6085511 0.0558429
 4287.78523 1.6047418 0.0556574
 4292.06674 1.5943068 0.0555630
 4296.36033 1.5986274 0.0552999
 4300.65362 1.6168669 0.0556072
 4304.95927 1.6169952 0.0553215
 4309.26493 1.6070879 0.0549142
 4313.58236 1.6165315 0.0544615
 4317.88802 1.6169055 0.0539661
 4322.20575 1.6098481 0.0535668
 4326.53526 1.6036564 0.0529862
 4330.85299 1.5921382 0.0524297
 4335.18279 1.5718312 0.0525951
 4339.52437 1.5685598 0.0520750
 4343.86624 1.5706147 0.0516726
 4348.20811 1.5777419 0.0508359
 4352.56176 1.5659699 0.0502428
 4356.90364 1.5662475 0.0501064
 4361.26936 1.5676717 0.0496738
 4365.62331 1.5559770 0.0493102
 4369.98903 1.5523514 0.0495375
 4374.36712 1.5508786 0.0489966
 4378.73284 1.5585160 0.0484836
 4383.11093 1.5505201 0.0480803
 4387.50080 1.5419233 0.0477214
 4391.89096 1.5414277 0.0475821
 4396.28083 1.5513378 0.0473844
 4400.68307 1.5670885 0.0469716
 4405.07293 1.5821313 0.0472316
 4409.48695 1.5920584 0.0470867
 4413.88918 1.6003726 0.0475232
 4418.30319 1.6057479 0.0476737
 4422.72928 1.6115248 0.0483497
 4427.14358 1.6386606 0.0482145
 4431.58174 1.6385863 0.0480987
 4436.00783 1.6681782 0.0482275
 4440.44628 1.6892421 0.0485272
 4444.88443 1.7023163 0.0495006
 4449.33466 1.7124090 0.0498814
 4453.77282 1.7329479 0.0502345
 4458.23541 1.7425625 0.0506460
 4462.68564 1.7547635 0.0506596
 4467.16002 1.7499630 0.0509541
 4471.62232 1.7684501 0.0504605
 4476.09669 1.7958893 0.0504435
 4480.57136 1.8062119 0.0499024
 4485.04573 1.8260653 0.0494451
 4489.53218 1.8455607 0.0489004
 4494.03070 1.8417037 0.0481749
 4498.51714 1.8316364 0.0474125
 4503.01566 1.8197278 0.0467084
 4507.52625 1.7846972 0.0465683
 4512.02477 1.7667063 0.0464880
 4516.54743 1.7517325 0.0460294
 4521.05802 1.7115431 0.0451055
 4525.58068 1.6445007 0.0443785
 4530.10334 1.6069760 0.0436995
 4534.63808 1.5810308 0.0430042
 4539.17281 1.5572280 0.0424580
 4543.70755 1.5410064 0.0426314
 4548.25435 1.5198753 0.0424591
 4552.80116 1.5137888 0.0421248
 4557.36004 1.5001134 0.0420216
 4561.90684 1.4951125 0.0417020
 4566.47780 1.5057280 0.0414917
 4571.03667 1.4984683 0.0413544
 4575.60733 1.4953445 0.0407573
 4580.19035 1.4957476 0.0406357
 4584.77338 1.4982938 0.0404986
 4589.35640 1.4805260 0.0402819
 4593.93942 1.4727597 0.0399686
 4598.53422 1.4652083 0.0396558
 4603.14139 1.4610631 0.0393455
 4607.73649 1.4489279 0.0390341
 4612.34365 1.4353863 0.0386616
 4616.96260 1.4379705 0.0380731
 4621.58184 1.4447170 0.0376144
 4626.20108 1.4310840 0.0372733
 4630.82003 1.4481752 0.0370609
 4635.45134 1.4344610 0.0367809
 4640.09472 1.4380347 0.0366112
 4644.73781 1.4423994 0.0365282
 4649.38120 1.4692775 0.0364477
 4654.02429 1.4921484 0.0357262
 4658.67974 1.5017823 0.0356570
 4663.33490 1.5235261 0.0356726
 4668.00243 1.5402558 0.0361370
 4672.66967 1.5664136 0.0361798
 4677.34927 1.5838745 0.0361843
 4682.01650 1.6047933 0.0361297
 4686.70818 1.6342142 0.0355927
 4691.38748 1.6405123 0.0354116
 4696.07915 1.6746117 0.0352052
 4700.78261 1.7098581 0.0349199
 4705.48635 1.7127830 0.0345915
 4710.18980 1.7315047 0.0345485
 4714.89325 1.7508733 0.0338354
 4719.60907 1.7722633 0.0337254
 4724.33667 1.7739373 0.0334616
 4729.05219 1.7918140 0.0333459
 4733.79215 1.8181263 0.0332608
 4738.51975 1.8305198 0.0332185
 4743.25941 1.8566673 0.0327037
 4747.99937 1.8787622 0.0331782
 4752.75111 1.8961247 0.0332545
 4757.50285 1.9115161 0.0334061
 4762.26667 1.9308943 0.0334336
 4767.01870 1.9589381 0.0335400
 4771.79458 1.9771575 0.0336361
 4776.55840 1.9879261 0.0333178
 4781.33428 1.9829016 0.0337398
 4786.12224 2.0075109 0.0340606
 4790.91019 2.0245099 0.0342811
 4795.69815 2.0213804 0.0347392
 4800.49847 2.0310688 0.0352319
 4805.29850 2.0286381 0.0357700
 4810.09853 2.0008321 0.0368343
 4814.91063 1.9915776 0.0364694
 4819.72273 1.9596695 0.0362294
 4824.54690 1.9392220 0.0357073
 4829.37108 1.9183947 0.0350323
 4834.19525 1.9181156 0.0343218
 4839.03150 1.8880392 0.0331909
 4843.86774 1.8637478 0.0324556
 4848.71606 1.8438876 0.0319158
 4853.56438 1.8205084 0.0314668
 4858.42447 1.8150768 0.0309921
 4863.27279 1.7922007 0.0312268
 4868.14525 1.7725999 0.0306992
 4873.01771 1.7559216 0.0304731
 4877.89017 1.7514607 0.0299206
 4882.76263 1.7621238 0.0296959
 4887.64687 1.7611054 0.0297094
 4892.53141 1.7667381 0.0294861
 4897.42801 1.7717909 0.0289634
 4902.32462 1.7626634 0.0287963
 4907.22123 1.7773093 0.0286526
 4912.12961 1.7793303 0.0287609
 4917.05036 1.7904056 0.0283277
 4921.95904 1.8137890 0.0282379
 4926.89157 1.8199776 0.0281955
 4931.81232 1.8118804 0.0281450
 4936.74514 1.8226672 0.0281488
 4941.67796 1.8276633 0.0281914
 4946.62227 1.8304709 0.0282370
 4951.56717 1.8326056 0.0282759
 4956.52443 1.8369462 0.0283184
 4961.48110 1.8321207 0.0283075
 4966.43777 1.8335478 0.0282994
 4971.40681 1.8328769 0.0278926
 4976.37585 1.8432086 0.0280788
 4981.35667 1.8483723 0.0279610
 4986.33749 1.8401550 0.0278437
 4991.31830 1.8369186 0.0273857
 4996.31149 1.8451252 0.0275796
 5001.31645 1.8449265 0.0275216
 5006.30963 1.8251450 0.0271317
 5011.32696 1.8199714 0.0270346
 5016.33192 1.8043932 0.0272305
 5021.34925 1.7809010 0.0268515
 5026.36599 1.7565351 0.0267217
 5031.39510 1.7552974 0.0265898
 5036.42479 1.7405537 0.0267399
 5041.46568 1.7148842 0.0262719
 5046.50715 1.6979049 0.0261089
 5051.56040 1.6884940 0.0259817
 5056.60187 1.6748323 0.0258121
 5061.66690 1.6596591 0.0256994
 5066.72015 1.6346489 0.0255857
 5071.78577 1.6294224 0.0254254
 5076.86316 1.6184348 0.0253054
 5081.94056 1.6081501 0.0251856
 5087.01795 1.6120332 0.0248090
 5092.10771 1.6046481 0.0249797
 5097.19689 1.5937092 0.0249272
 5102.29843 1.5976089 0.0246233
 5107.39997 1.5998302 0.0247926
 5112.51387 1.5979301 0.0247535
 5117.62719 1.6060891 0.0245034
 5122.74110 1.6234977 0.0248652
 5127.86678 1.6346490 0.0247816
 5132.99246 1.6320521 0.0249722
 5138.12992 1.6358842 0.0251577
 5143.26797 1.6450679 0.0254001
 5148.40544 1.6520060 0.0255134
 5153.55526 1.6616569 0.0255685
 5158.70509 1.6620702 0.0255148
 5163.86729 1.6588330 0.0254190
 5169.02889 1.6588976 0.0253227
 5174.20287 1.6595249 0.0250913
 5179.37684 1.6520792 0.0249054
 5184.55081 1.6441150 0.0244475
 5189.73656 1.6421241 0.0244862
 5194.93468 1.6354327 0.0244745
 5200.12102 1.6298118 0.0243293
 5205.33091 1.6072416 0.0247229
 5210.52903 1.6036413 0.0246873
 5215.73892 1.5913126 0.0250158
 5220.96119 1.5873469 0.0252423
 5226.18345 1.5622025 0.0249247
 5231.40571 1.5496037 0.0248499
 5236.63975 1.5473332 0.0246945
 5241.87379 1.5345618 0.0245468
 5247.12019 1.5339532 0.0245417
 5252.36660 1.5368373 0.0239346
 5257.61300 1.5304217 0.0236598
 5262.87119 1.5096672 0.0232093
 5268.14174 1.5090698 0.0229479
 5273.39992 1.5096008 0.0227701
 5278.68225 1.5053343 0.0225304
 5283.95280 1.5099255 0.0223730
 5289.23513 1.5114543 0.0220825
 5294.52982 1.5154651 0.0219153
 5299.82452 1.5226935 0.0215321
 5305.13099 1.5242203 0.0216337
 5310.42569 1.5380702 0.0216167
 5315.74394 1.5386126 0.0218182
 5321.06277 1.5467442 0.0217237
 5326.38161 1.5463223 0.0215883
 5331.69986 1.5488249 0.0218343
 5337.04285 1.5523905 0.0216548
 5342.37346 1.5534583 0.0218885
 5347.71645 1.5568984 0.0216598
 5353.07121 1.5508091 0.0216366
 5358.41419 1.5419184 0.0215875
 5363.78073 1.5437464 0.0215345
 5369.13549 1.5532047 0.0216849
 5374.51440 1.5502201 0.0213978
 5379.88153 1.5535923 0.0213331
 5385.27280 1.5658507 0.0212331
 5390.65171 1.5828679 0.0211695
 5396.04239 1.5967535 0.0211156
 5401.44544 1.6044934 0.0210797
 5406.83671 1.6239581 0.0210183
 5412.25154 1.6370971 0.0209711
 5417.65459 1.6402919 0.0207247
 5423.08178 1.6503257 0.0208989
 5428.49720 1.6687299 0.0206571
 5433.92440 1.6737494 0.0208752
 5439.36337 1.6912328 0.0207009
 5444.80293 1.7049819 0.0209545
 5450.25427 1.7138685 0.0207466
 5455.69324 1.7170811 0.0209594
 5461.15695 1.7347454 0.0208546
 5466.62006 1.7502631 0.0213097
 5472.08377 1.7633033 0.0215625
 5477.55866 1.7722688 0.0219153
 5483.03415 1.7911091 0.0224661
 5488.52200 1.8087314 0.0227630
 5494.00926 1.8276300 0.0230257
 5499.49711 1.8250995 0.0231211
 5504.99615 1.8166579 0.0229986
 5510.50814 1.8154051 0.0227561
 5516.01955 1.8050537 0.0223111
 5521.53154 1.7905997 0.0216632
 5527.05472 1.7915196 0.0213541
 5532.57850 1.7958777 0.0207907
 5538.11464 1.7980065 0.0206592
 5543.65019 1.8001783 0.0203217
 5549.19810 1.7989576 0.0204605
 5554.74543 1.8022985 0.0202812
 5560.30571 1.8069887 0.0204119
 5565.86541 1.8201399 0.0200576
 5571.42510 1.8222547 0.0202533
 5576.99716 1.8273478 0.0202487
 5582.58100 1.8296281 0.0205227
 5588.16543 1.8291581 0.0207829
 5593.74927 1.8196036 0.0212113
 5599.34547 1.8155199 0.0214346
 5604.94109 1.8057239 0.0217302
 5610.54907 1.7821823 0.0218270
 5616.15765 1.7737740 0.0218393
 5621.77741 1.7521216 0.0214889
 5627.39776 1.7305515 0.0215609
 5633.02989 1.7209227 0.0213018
 5638.65024 1.7064552 0.0210242
 5644.29414 1.6913544 0.0206330
 5649.93864 1.6628423 0.0202510
 5655.59491 1.6408203 0.0203461
 5661.25118 1.6120687 0.0202765
 5666.90745 1.5809098 0.0205825
 5672.57609 1.5574872 0.0203921
 5678.24473 1.5188723 0.0204777
 5683.92515 1.4884297 0.0205583
 5689.60556 1.4563040 0.0205095
 5695.29776 1.4323487 0.0207599
 5701.00232 1.4184927 0.0205017
 5706.69510 1.4107832 0.0204368
 5712.39966 1.4064349 0.0203765
 5718.11659 1.3929290 0.0203558
 5723.83293 1.4069504 0.0202011
 5729.56163 1.4027385 0.0204488
 5735.29034 1.4032345 0.0206594
 5741.03141 1.4105755 0.0208101
 5746.76012 1.4144233 0.0209544
 5752.51297 1.4206896 0.0208044
 5758.26523 1.4246209 0.0210984
 5764.03044 1.4299500 0.0212386
 5769.79507 1.4284950 0.0211390
 5775.56029 1.4277089 0.0214356
 5781.33728 1.4315635 0.0213526
 5787.11428 1.4271328 0.0214921
 5792.90305 1.4262187 0.0218440
 5798.69182 1.4442817 0.0217827
 5804.49296 1.4640167 0.0220144
 5810.30646 1.4781144 0.0221502
 5816.11938 1.4869095 0.0223920
 5821.93230 1.5008023 0.0226312
 5827.74580 1.5070059 0.0228046
 5833.58286 1.5236431 0.0230787
 5839.40815 1.5087959 0.0233795
 5845.24521 1.5008401 0.0235925
 5851.09463 1.5016187 0.0239240
 5856.94406 1.4885515 0.0239791
 5862.80527 1.4790031 0.0244523
 5868.66647 1.4722723 0.0248529
 5874.54004 1.4642611 0.0247622
 5880.41362 1.4387802 0.0251930
 5886.28719 1.4166313 0.0256897
 5892.18432 1.4212594 0.0255082
 5898.07025 1.4491396 0.0251557
 5903.96738 1.4717156 0.0249015
 5909.87746 1.4986337 0.0240052
 5915.78696 1.5128371 0.0229623
 5921.69645 1.5047485 0.0216069
 5927.63009 1.4961399 0.0208502
 5933.55195 1.4986042 0.0199613
 5939.48559 1.4937381 0.0193630
 5945.43160 1.4812754 0.0191146
 5951.36523 1.4624763 0.0190373
 5957.32302 1.4420342 0.0192272
 5963.28080 1.4316881 0.0194351
 5969.23858 1.4251157 0.0200816
 5975.20873 1.4221965 0.0203086
 5981.19066 1.4306887 0.0199796
 5987.17259 1.4379193 0.0198920
 5993.15451 1.4386992 0.0204332
 5999.14881 1.4551197 0.0209447
 6005.15488 1.4883455 0.0211737
 6011.16095 1.5308872 0.0216412
 6017.16702 1.5605524 0.0222755
 6023.18487 1.5829521 0.0223804
 6029.20331 1.6035428 0.0224843
 6035.23353 1.5996977 0.0220497
 6041.27552 1.5987291 0.0213830
 6047.31811 1.5934852 0.0208297
 6053.36010 1.5775436 0.0200193
 6059.41446 1.5639516 0.0192718
 6065.46882 1.5472912 0.0185423
 6071.53496 1.5340672 0.0182582
 6077.61346 1.5232254 0.0179753
 6083.69197 1.5058337 0.0178151
 6089.78284 1.4914031 0.0176517
 6095.86135 1.4808289 0.0174622
 6101.96400 1.4709311 0.0172862
 6108.06606 1.4623358 0.0167382
 6114.16871 1.4546670 0.0163858
 6120.28372 1.4467226 0.0164124
 6126.40993 1.4403067 0.0165780
 6132.53672 1.4342254 0.0167994
 6138.66351 1.4291930 0.0169486
 6144.80209 1.4230109 0.0171462
 6150.95302 1.4079432 0.0171621
 6157.10396 1.3977560 0.0169764
 6163.25490 1.3910185 0.0166501
 6169.41762 1.3824501 0.0163766
 6175.59270 1.3834139 0.0159274
 6181.76778 1.3798394 0.0154583
 6187.95464 1.3797238 0.0150364
 6194.14150 1.3863266 0.0147232
 6200.32836 1.3877376 0.0145493
 6206.53996 1.3927982 0.0147711
 6212.73860 1.4006864 0.0152029
 6218.95019 1.4066530 0.0152079
 6225.17297 1.4134963 0.0151169
 6231.39634 1.4201118 0.0153996
 6237.63149 1.4244269 0.0160082
 6243.86664 1.4285911 0.0168355
 6250.11416 1.4329997 0.0177583
 6256.36109 1.4410456 0.0183758
 6262.62097 1.4431087 0.0192140
 6268.88026 1.4453464 0.0198346
 6275.15133 1.4502766 0.0201175
 6281.42299 1.4519593 0.0199873
 6287.70643 1.4501241 0.0194766
 6294.00224 1.4675138 0.0186540
 6300.28567 1.4811805 0.0179741
 6306.59326 1.4813055 0.0171602
 6312.90084 1.4847801 0.0166120
 6319.20842 1.4804096 0.0159516
 6325.52778 1.4867964 0.0157693
 6331.85951 1.5015397 0.0158688
 6338.19124 1.5127175 0.0158795
 6344.52296 1.5223194 0.0160559
 6350.86706 1.5307868 0.0163240
 6357.22293 1.5310459 0.0166921
 6363.57880 1.5262517 0.0171103
 6369.94645 1.5162356 0.0174607
 6376.31469 1.5131534 0.0177127
 6382.69411 1.5157778 0.0176635
 6389.07413 1.5169829 0.0178695
 6395.46651 1.5154681 0.0178536
 6401.85831 1.5090100 0.0179756
 6408.26247 1.5117466 0.0183853
 6414.66663 1.5176326 0.0191242
 6421.08257 1.5135347 0.0200150
 6427.51087 1.5112562 0.0186133
 6433.93917 1.5061476 0.0190748
 6440.36748 1.5052837 0.0198618
 6446.80756 1.5196666 0.0208850
 6453.26001 1.5290481 0.0219517
 6459.71246 1.5315526 0.0235371
 6466.17669 1.5377191 0.0256160
 6472.62914 1.5349025 0.0278969
 6479.10573 1.5112679 0.0308327
 6485.59410 1.4894377 0.0315673
 6492.07069 1.4675314 0.0311640
 6498.57084 1.4696703 0.0298030
 6505.05980 1.4590718 0.0279231
 6511.57232 1.4412335 0.0259625
 6518.08483 1.4258161 0.0241225
 6524.59735 1.4216723 0.0229148
 6531.12223 1.4176670 0.0230219
 6537.65889 1.4001327 0.0217611
 6544.19555 1.3883910 0.0206907
 6550.74458 1.3835595 0.0198947
 6557.29302 1.3774596 0.0199107
 6563.85441 1.3726754 0.0195703
 6570.41522 1.3591180 0.0190420
 6576.98780 1.3442484 0.0184759
 6583.56097 1.3285906 0.0180336
 6590.14592 1.3163207 0.0176995
 6596.73087 1.3049277 0.0173793
 6603.32818 1.3048488 0.0170685
 6609.93728 1.3012398 0.0167486
 6616.54637 1.2956907 0.0164285
 6623.16724 1.2911816 0.0161254
 6629.78870 1.2828010 0.0158305
 6636.42194 1.2799170 0.0155452
 6643.05518 1.2784234 0.0152696
 6649.70019 1.2730641 0.0150088
 6656.34580 1.2661761 0.0147780
 6663.00318 1.2556978 0.0145685
 6669.66056 1.2514009 0.0142676
 6676.32972 1.2502073 0.0141359
 6683.01125 1.2407857 0.0139618
 6689.69277 1.2355125 0.0137745
 6696.38608 1.2243707 0.0136708
 6703.07997 1.2143322 0.0136570
 6709.78564 1.2006373 0.0137132
 6716.50309 1.1924068 0.0137962
 6723.20876 1.1876796 0.0139102
 6729.93858 1.1831449 0.0140062
 6736.66781 1.1793460 0.0139936
 6743.40999 1.1798372 0.0139250
 6750.15158 1.1794974 0.0137838
 6756.89317 1.1677253 0.0137668
 6763.65950 1.1623580 0.0137057
 6770.42524 1.1556287 0.0135807
 6777.19098 1.1514752 0.0134044
 6783.96908 1.1451974 0.0132046
 6790.74718 1.1332417 0.0129591
 6797.53707 1.1237922 0.0127138
 6804.33932 1.1181971 0.0124849
 6811.14098 1.1032219 0.0122018
 6817.95559 1.0915258 0.0119228
 6824.78140 1.0745939 0.0116369
 6831.59601 1.0612274 0.0114358
 6838.43418 1.0425704 0.0113109
 6845.27235 1.0236745 0.0112100
 6852.11052 1.0023390 0.0111659
 6858.97284 0.9878618 0.0110362
 6865.82338 0.9710582 0.0109729
 6872.69747 0.9515398 0.0109082
 6879.57215 0.9358471 0.0109275
 6886.44683 0.9142002 0.0109088
 6893.33329 0.9007269 0.0108303
 6900.23153 0.8933130 0.0106250
 6907.13036 0.8873441 0.0106329
 6914.04096 0.8800923 0.0106909
 6920.95157 0.8769213 0.0107172
 6927.87395 0.8829212 0.0107243
 6934.79692 0.8907613 0.0107324
 6941.73167 0.8919488 0.0106527
 6948.67819 0.9030539 0.0107096
 6955.62531 0.9136267 0.0105451
 6962.58420 0.9241058 0.0103402
 6969.54310 0.9378366 0.0101708
 6976.51377 0.9512346 0.0098566
 6983.48503 0.9652182 0.0096736
 6990.47984 0.9806824 0.0095498
 6997.46288 0.9877800 0.0095061
 7004.47006 0.9975784 0.0094624
 7011.46488 1.0124778 0.0094210
 7018.48442 1.0149932 0.0093856
 7025.50338 1.0206419 0.0092881
 7032.52234 1.0261267 0.0092043
 7039.55367 1.0308285 0.0090610
 7046.59736 1.0333112 0.0090677
 7053.64047 1.0303673 0.0089780
 7060.69594 1.0250839 0.0088835
 7067.76319 1.0179069 0.0087140
 7074.83043 1.0108924 0.0086228
 7081.89768 1.0085312 0.0086287
 7088.98966 1.0081210 0.0085604
 7096.06869 1.0025438 0.0084557
 7103.17245 1.0063025 0.0084349
 7110.27621 1.0076551 0.0083878
 7117.37997 1.0110599 0.0084084
 7124.50729 1.0156122 0.0083676
 7131.62341 1.0211234 0.0083931
 7138.76309 1.0303187 0.0083980
 7145.90277 1.0390455 0.0083872
 7153.04246 1.0414337 0.0083931
 7160.19450 1.0462766 0.0083975
 7167.35833 1.0500762 0.0083904
 7174.52216 1.0528247 0.0083162
 7181.69776 1.0527804 0.0083991
 7188.88632 1.0529382 0.0084100
 7196.07429 1.0497438 0.0083504
 7203.26226 1.0455602 0.0083426
 7210.47438 1.0440553 0.0083751
 7217.68649 1.0421721 0.0082721
