# SOURCE  = 'Quimby et al. 2018' /                                                
# OBJECT  = 'PTF09cwl'           /                                                
# Z       =             0.350200 / wavelengths in OBSERVER FRAME                 
# NORM    =          3.85360E-19 / fluxes divided by norm                         
# CLIPPED =                    1 / galaxy emission lines removed                  
# SMOOTHED=                    1 / spectrum has been smoothed                     
# COLUMN01= 'Wavelength (Angstrom)' /                                             
# COLUMN02= 'Flux Density (erg/s/cm2/A)' /                                        
# COLUMN03= 'Flux Density Uncertainty (erg/s/cm2/A)' /                            
# END                                                                             
# 
# 
# 
# 
# 
# 
# 
# 
# 
# 
# Converted to Observer Frame using z=0.3502
 4802.16074 1.1923866 0.1094365
 4806.97382 1.1823124 0.1088080
 4811.76820 1.1777380 0.1083210
 4816.58127 1.1688467 0.1075039
 4821.39390 1.1707568 0.1070430
 4826.22523 1.1848549 0.1061544
 4831.05611 1.2052892 0.1055325
 4835.88698 1.2067668 0.1046938
 4840.71831 1.1887470 0.1041200
 4845.56743 1.1757964 0.1034665
 4850.39876 1.1724789 0.1028099
 4855.24788 1.1830534 0.1023914
 4860.11526 1.2205760 0.1017837
 4864.96483 1.2209220 0.1012556
 4869.83220 1.2135495 0.1003856
 4874.69958 1.2160981 0.0999353
 4879.58565 1.2203256 0.0990927
 4884.45302 1.2024705 0.0983397
 4889.33864 1.1855648 0.0977935
 4894.24251 1.1986934 0.0969528
 4899.12858 1.2055579 0.0964979
 4904.03245 1.2090904 0.0957435
 4908.93632 1.1958135 0.0952429
 4913.84019 1.1990469 0.0945860
 4918.76276 1.1840652 0.0938727
 4923.68488 1.1905936 0.0935388
 4928.60700 1.2015296 0.0929101
 4933.52912 1.2183565 0.0924991
 4938.46948 1.2060744 0.0919264
 4943.39205 1.2109069 0.0912711
 4948.35066 1.2120589 0.0909745
 4953.29103 1.2175524 0.0904146
 4958.24965 1.2275376 0.0900981
 4963.20826 1.2414234 0.0896455
 4968.16688 1.2355701 0.0890886
 4973.14374 1.2315253 0.0889481
 4978.10236 1.2364494 0.0885355
 4983.07922 1.2353780 0.0882807
 4988.07433 1.2309318 0.0875897
 4993.05164 1.2425297 0.0868848
 4998.04675 1.2638003 0.0864795
 5003.04186 1.2555248 0.0857173
 5008.05522 1.2728647 0.0850048
 5013.06858 1.2786456 0.0844861
 5018.08194 1.2859786 0.0838428
 5023.09530 1.2815778 0.0833828
 5028.10866 1.2956674 0.0826834
 5033.14027 1.2833779 0.0821153
 5038.17188 1.2706138 0.0817102
 5043.22129 1.2678097 0.0811745
 5048.25290 1.2739873 0.0805773
 5053.30276 1.2763559 0.0802909
 5058.37086 1.2780139 0.0797359
 5063.42072 1.2761455 0.0793186
 5068.48882 1.2811688 0.0790445
 5073.55693 1.2955326 0.0787416
 5078.62503 1.2746617 0.0783632
 5083.71139 1.2541316 0.0781159
 5088.79729 1.2664146 0.0776822
 5093.88365 1.2632141 0.0770723
 5098.97000 1.2670770 0.0767481
 5104.07460 1.2593979 0.0761150
 5109.17920 1.2749299 0.0755522
 5114.28380 1.2748690 0.0751604
 5119.40621 1.2657907 0.0747103
 5124.52906 1.2618352 0.0741993
 5129.65191 1.2593340 0.0737313
 5134.77475 1.2550094 0.0733625
 5139.91541 1.2568878 0.0728569
 5145.05650 1.2512676 0.0722623
 5150.19760 1.2364234 0.0718918
 5155.33825 1.2268738 0.0712533
 5160.49760 1.2238541 0.0707664
 5165.65695 1.2175148 0.0702979
 5170.83410 1.2163010 0.0700833
 5175.99344 1.2265213 0.0695883
 5181.17103 1.2105129 0.0691625
 5186.36643 1.2114111 0.0688436
 5191.54403 1.2247558 0.0684215
 5196.73987 1.2284139 0.0681016
 5201.93526 1.2219470 0.0676722
 5207.13111 1.2245129 0.0673648
 5212.34475 1.2219766 0.0669481
 5217.55884 1.2282835 0.0665142
 5222.77293 1.2159412 0.0660342
 5228.00483 1.2091352 0.0657880
 5233.21892 1.1986510 0.0653510
 5238.45081 1.1845403 0.0649988
 5243.70140 1.1897300 0.0646140
 5248.93329 1.1901500 0.0644840
 5254.18388 1.1890801 0.0641417
 5259.45227 1.1771796 0.0638339
 5264.70285 1.1593169 0.0634404
 5269.97124 1.1487215 0.0632570
 5275.23963 1.1316102 0.0629928
 5280.50847 1.1269004 0.0627084
 5285.79511 1.1267929 0.0624791
 5291.08219 1.1290146 0.0621878
 5296.36883 1.1383499 0.0621158
 5301.67371 1.1321625 0.0618556
 5306.97905 1.1323839 0.0616684
 5312.28393 1.1241566 0.0614704
 5317.58882 1.1301887 0.0612081
 5322.91240 1.1367540 0.0611688
 5328.23553 1.1426101 0.0609260
 5333.55867 1.1432854 0.0607841
 5338.90049 1.1407537 0.0605816
 5344.24188 1.1243695 0.0604830
 5349.58326 1.1436356 0.0604141
 5354.92509 1.1594117 0.0603834
 5360.28472 1.1646976 0.0603596
 5365.64435 1.1466455 0.0602049
 5371.00398 1.1435424 0.0601422
 5376.38186 1.1362532 0.0600739
 5381.76018 1.1425362 0.0600187
 5387.13806 1.1550952 0.0598971
 5392.53419 1.1438726 0.0596652
 5397.91207 1.1469295 0.0595423
 5403.30820 1.1480150 0.0594470
 5408.72302 1.1385629 0.0592569
 5414.13739 1.1498615 0.0591404
 5419.55177 1.1629331 0.0591161
 5424.96614 1.1480238 0.0588783
 5430.39877 1.1344739 0.0587052
 5435.81314 1.1413033 0.0585046
 5441.26401 1.1213156 0.0582287
 5446.69664 1.1239634 0.0580513
 5452.14751 1.1313034 0.0577814
 5457.59838 1.1367821 0.0575946
 5463.04925 1.1300203 0.0575657
 5468.51837 1.1227177 0.0573454
 5473.98749 1.1510100 0.0818343
 5479.45661 1.1369835 0.0815933
 5484.94398 1.1357087 0.0812056
 5490.43135 1.1605798 0.0805784
 5495.91872 1.1574179 0.0802350
 5501.40609 1.1587490 0.0802913
 5506.91170 1.1472223 0.0798927
 5512.41732 1.1158652 0.0795004
 5517.94119 1.1054252 0.0792663
 5523.44680 1.1310447 0.0789355
 5528.97067 1.1104059 0.0782885
 5534.51278 1.0743487 0.0778246
 5540.03620 1.0561898 0.0776829
 5545.57831 1.0371455 0.0772866
 5551.12043 1.0383415 0.0767702
 5556.68079 1.0357072 0.0765084
 5562.24115 1.0463037 0.0763112
 5567.80106 1.0095596 0.0761626
 5573.36142 0.9926324 0.0757975
 5578.94003 0.9641703 0.0756173
 5584.51864 0.9697061 0.0757190
 5590.09725 0.9728972 0.0756233
 5595.69367 0.9800175 0.0755052
 5601.29052 0.9837601 0.0750883
 5606.88738 0.9685726 0.0748595
 5612.50204 0.9728696 0.0746138
 5618.11715 0.9564266 0.0743077
 5623.73225 0.8996013 0.0739837
 5629.34691 0.9046359 0.0734254
 5634.98027 0.9056520 0.0730220
 5640.61362 0.9122100 0.0725469
 5646.26478 0.8836325 0.0720633
 5651.89813 0.8701512 0.0718738
 5657.54973 0.8741585 0.0712283
 5663.21914 0.8697725 0.0707600
 5668.88899 0.8881030 0.0703130
 5674.54015 0.9158369 0.0698891
 5680.22825 0.9030084 0.0694803
 5685.89765 0.8842371 0.0689198
 5691.58575 0.8832522 0.0685522
 5697.27340 0.8905134 0.0681974
 5702.97975 0.8980102 0.0678953
 5708.68565 0.9043977 0.0676890
 5714.39200 0.8871264 0.0675818
 5720.09790 0.8802142 0.0673084
 5725.82249 0.8794843 0.0672074
 5731.54664 0.8878202 0.0671097
 5737.28949 0.8723729 0.0670397
 5743.01364 0.8892884 0.0669271
 5748.75604 0.8500187 0.0668098
 5754.51713 0.8358449 0.0667444
 5760.25953 0.8621476 0.0664948
 5766.02062 0.8721322 0.0664477
 5771.79951 0.9023308 0.0664385
 5777.56016 0.9216924 0.0664077
 5783.33950 0.9271452 0.0663756
 5789.13664 0.9387891 0.0663777
 5794.91553 0.9695104 0.0663809
 5800.71268 0.9738259 0.0663512
 5806.51026 0.9801620 0.0663104
 5812.32566 0.9634181 0.0660784
 5818.14105 0.9425227 0.0660625
 5823.95644 0.9531062 0.0660753
 5829.77227 0.9418556 0.0661383
 5835.60591 0.9395145 0.0662071
 5841.43955 0.9102030 0.0662515
 5847.29144 0.8752170 0.0662933
 5853.12508 0.8861853 0.0662874
 5858.97741 0.8768300 0.0662494
 5864.84755 0.8998911 0.0661922
 5870.69943 0.9134948 0.0661465
 5876.58782 0.9106227 0.0657231
 5882.45795 0.9432732 0.0657193
 5888.34634 0.9681712 0.0657471
 5894.23472 0.9866775 0.0657823
 5900.12310 1.0051060 0.0658103
 5906.02974 0.9942209 0.0658704
 5911.93637 0.9766434 0.0659713
 5917.84300 0.9788374 0.0660662
 5923.76788 0.9821721 0.0661727
 5929.69276 0.9661698 0.0663113
 5935.61764 0.9683870 0.0664459
 5941.54252 0.9632855 0.0665488
 5947.48565 0.9463979 0.0663577
 5953.44702 0.9505207 0.0663210
 5959.39015 0.9472751 0.0662846
 5965.35153 0.9235933 0.0662336
 5971.31291 0.9243902 0.0661478
 5977.29253 0.9145408 0.0660373
 5983.27216 0.9354591 0.0659219
 5989.25178 0.9565690 0.0657801
 5995.24965 0.9449151 0.0654079
 6001.22883 0.9379200 0.0652551
 6007.24495 0.9209759 0.0650620
 6013.24283 0.9115471 0.0648506
 6019.25895 0.9068098 0.0646468
 6025.27507 0.8892396 0.0644397
 6031.30899 0.8562872 0.0640121
 6037.34336 0.8472061 0.0638389
 6043.37773 0.8332597 0.0637170
 6049.41210 0.8401453 0.0636499
 6055.46427 0.8400800 0.0636405
 6061.51689 0.8146190 0.0637022
 6067.58776 0.8008158 0.0635864
 6073.65862 0.7986355 0.0636137
 6079.72904 0.8193051 0.0636233
 6085.79991 0.8497956 0.0636334
 6091.88902 0.8843968 0.0636417
 6097.97769 0.8930174 0.0634615
 6104.08505 0.9021876 0.0634515
 6110.19197 0.8917596 0.0634539
 6116.29933 0.9150857 0.0634512
 6122.40670 0.9273597 0.0634177
 6128.53186 0.9426685 0.0633585
 6134.65747 0.9436647 0.0632808
 6140.80089 0.9530357 0.0632083
 6146.94474 0.9445267 0.0631262
 6153.08816 0.9454903 0.0630159
 6159.25026 0.9384598 0.0627070
 6165.41193 0.9160042 0.0626156
 6171.57403 0.9144973 0.0625299
 6177.73569 0.9104301 0.0623988
 6183.91605 0.9031875 0.0620255
 6190.09596 0.9064218 0.0618866
 6196.29412 0.8991358 0.0620741
 6202.49272 0.8718421 0.0616407
 6208.69088 0.8592367 0.0614477
 6214.90773 0.8559563 0.0612887
 6221.10589 0.8480257 0.0611719
 6227.34054 0.8163991 0.0608975
 6233.55739 0.7925984 0.0608638
 6239.79205 0.7816187 0.0608518
 6246.04495 0.7770061 0.0609971
 6252.28005 0.7728138 0.0608034
 6258.53295 0.7678341 0.0607824
 6264.78586 0.7478044 0.0607513
 6271.05701 0.7524785 0.0605529
 6277.32860 0.7561859 0.0605456
 6283.61800 0.7491211 0.0607250
 6289.88915 0.7591439 0.0605392
 6296.17855 0.7627445 0.0605387
 6302.48620 0.7775416 0.0605415
 6308.77604 0.7787377 0.0603197
 6315.08369 0.7838540 0.0602556
 6321.40959 0.7923970 0.0603522
 6327.73548 0.7839444 0.0600788
 6334.06138 0.7621025 0.0599793
 6340.38727 0.7585042 0.0598728
 6346.73142 0.7752941 0.0595815
 6353.07556 0.7858748 0.0596224
 6359.43840 0.8020683 0.0595017
 6365.80079 0.8216202 0.0592006
 6372.16318 0.8317242 0.0590864
 6378.52557 0.8357726 0.0588103
 6384.90621 0.8373795 0.0588862
 6391.28685 0.8328156 0.0587954
 6397.68574 0.8471577 0.0585420
 6404.08463 0.8465393 0.0584999
 6410.48352 0.8459201 0.0584891
 6416.90021 0.8597749 0.0584724
 6423.31735 0.8779610 0.0584490
 6429.73448 0.8823652 0.0583058
 6436.16987 0.8877037 0.0585834
 6442.60525 0.8722251 0.0585400
 6449.05889 0.8612023 0.0584902
 6455.49427 0.8615247 0.0585829
 6461.94790 0.8795820 0.0587459
 6468.41934 0.8786108 0.0588787
 6474.89122 0.8709240 0.0588507
 6481.36310 0.8692157 0.0591871
 6487.83498 0.8823540 0.0591467
 6494.32511 0.8725410 0.0592510
 6500.81480 0.8647174 0.0591865
 6507.32317 0.8605449 0.0594440
 6513.83155 0.8620481 0.0593443
 6520.35773 0.8555860 0.0594158
 6526.86611 0.8435797 0.0596574
 6533.39274 0.8384260 0.0595331
 6539.93717 0.8612198 0.0597101
 6546.46379 0.8822210 0.0596117
 6553.00866 0.8577834 0.0595605
 6559.57134 0.8388975 0.0593212
 6566.13446 0.8295653 0.0594279
 6572.69759 0.8242921 0.0592027
 6579.27851 0.8138345 0.0591624
 6585.84163 0.8108575 0.0590942
 6592.44081 0.8315062 0.0590581
 6599.02218 0.8431094 0.0588236
 6605.62135 0.8415778 0.0587793
 6612.23922 0.8297189 0.0587755
 6618.83839 0.8286933 0.0586193
 6625.45626 0.8366810 0.0588131
 6632.09193 0.8289801 0.0587013
 6638.72804 0.8336341 0.0587372
 6645.36371 0.8310369 0.0587581
 6652.01808 0.8158913 0.0587845
 6658.65375 0.7942790 0.0588029
 6665.32591 0.8006490 0.0588085
 6671.98028 0.8174948 0.0586307
 6678.65244 0.8140848 0.0586195
 6685.34286 0.8011307 0.0586109
 6692.01547 0.8047953 0.0586174
 6698.72413 0.8022494 0.0586176
 6705.41455 0.8069975 0.0586117
 6712.12365 0.7980157 0.0585816
 6718.83232 0.7882206 0.0585176
 6725.55923 0.7767182 0.0584280
 6732.26789 0.7704827 0.0583561
 6739.01349 0.7585500 0.0583017
 6745.74040 0.7511575 0.0580915
 6752.50381 0.7355327 0.0582020
 6759.24897 0.7170562 0.0580005
 6766.01238 0.6950079 0.0578157
 6772.77623 0.6827909 0.0579585
 6779.53964 0.6517693 0.0578120
 6786.32129 0.6600673 0.0578202
 6793.12120 0.6798260 0.0578558
 6799.90285 0.6675732 0.0579318
 6806.70276 0.6519978 0.0578032
 6813.52091 0.6321340 0.0578037
 6820.32081 0.6539620 0.0576278
 6827.15721 0.6314275 0.0575908
 6833.97536 0.6201495 0.0575873
 6840.81176 0.6282309 0.0575497
 6847.64816 0.6212288 0.0573464
 6854.50281 0.6195613 0.0574906
 6861.35746 0.6242132 0.0573022
 6868.21211 0.6099837 0.0573440
 6875.08501 0.6030272 0.0573677
 6881.95790 0.5986519 0.0574282
 6888.84905 0.6205785 0.0574624
 6895.72194 0.6062523 0.0572626
 6902.63134 0.6045984 0.0573815
 6909.52248 0.5888856 0.0572279
 6916.43143 0.5939283 0.0572618
 6923.35907 0.6027399 0.0571212
 6930.28671 0.6137199 0.0573092
 6937.21435 0.6092210 0.0572167
 6944.14199 0.5911732 0.0572793
 6951.08744 0.5893808 0.0573685
 6958.05158 0.5984645 0.0574599
 6964.99747 0.5930808 0.0575833
 6971.96160 0.5848337 0.0575087
 6978.94354 0.5704771 0.0576563
 6985.92593 0.5796837 0.0576352
 6992.90832 0.5812952 0.0577289
 6999.89026 0.5673876 0.0578203
 7006.89089 0.5577348 0.0577581
 7013.90977 0.5613821 0.0578415
 7020.92821 0.5661874 0.0579170
 7027.94709 0.5787675 0.0579806
 7034.96553 0.5681341 0.0580631
 7042.00266 0.5791829 0.0579829
 7049.03934 0.5931081 0.0580701
 7056.09472 0.6103616 0.0581685
 7063.14966 0.6257480 0.0581188
 7070.22328 0.6160715 0.0583594
 7077.27822 0.6362352 0.0584337
 7084.37009 0.6440892 0.0583509
 7091.44327 0.6556943 0.0584256
 7098.53515 0.6457905 0.0585038
 7105.64483 0.6628579 0.0584408
 7112.75495 0.6849114 0.0585501
 7119.86463 0.6894127 0.0588339
 7126.97431 0.7000705 0.0588607
 7134.10268 0.6987140 0.0590681
 7141.24885 0.6902387 0.0593169
 7148.37678 0.6909668 0.0595734
 7155.54165 0.6945868 0.0596471
 7162.68782 0.6951341 0.0598550
 7169.85224 0.6848426 0.0600234
 7177.01711 0.6785232 0.0600798
 7184.19978 0.6824341 0.0603184
 7191.38245 0.6993776 0.0605474
 7198.58337 0.6920646 0.0607363
 7205.76649 0.7074205 0.0608917
 7212.98566 0.7018654 0.0610711
 7220.18657 0.6988889 0.0611913
 7227.40574 0.6811841 0.0613258
 7234.64316 0.6951702 0.0612839
 7241.88057 0.6833912 0.0613495
 7249.11799 0.6670837 0.0613955
 7256.37410 0.6556024 0.0614892
 7263.62976 0.6428562 0.0615823
 7270.88543 0.6247144 0.0614667
 7278.15934 0.6298190 0.0615332
 7285.43325 0.6557014 0.0616230
 7292.72541 0.6631370 0.0617153
 7300.01757 0.6603445 0.0618113
 7307.30973 0.6775969 0.0617490
 7314.62014 0.6712963 0.0618696
 7321.93055 0.6933407 0.0620108
 7329.25920 0.7094367 0.0621826
 7336.58786 0.7186643 0.0623960
 7343.93432 0.7336713 0.0626132
 7351.26298 0.7510138 0.0626328
 7358.62813 0.7621237 0.0628719
 7365.99328 0.7728233 0.0631587
 7373.35843 0.7740055 0.0634824
 7380.72359 0.7801874 0.0642136
 7388.10654 0.7839584 0.0650809
 7395.48994 0.7793846 0.0652611
 7402.89159 0.7723109 0.0649928
 7410.29324 0.7681331 0.0650552
 7417.69489 0.7686552 0.0653680
 7425.11435 0.7859506 0.0658877
 7432.55249 0.7782738 0.0665606
 7439.97239 0.7801076 0.0673981
 7447.42834 0.7641872 0.0683765
 7454.86648 0.7806684 0.0694590
 7462.32288 0.7688833 0.0706258
 7469.77927 0.7944934 0.0718738
 7477.25302 0.7925910 0.0732005
 7484.72767 0.7902130 0.0742869
 7492.22100 0.7866887 0.0756564
 7499.71345 0.7463241 0.0770325
 7507.20589 0.7129441 0.0784098
 7514.71703 0.6986237 0.0797422
 7522.22817 0.6943992 0.0809968
 7529.75711 0.6679865 0.0821538
 7537.28605 0.6586925 0.0832907
 7544.81499 0.6375214 0.0842295
 7552.36263 0.6427328 0.0850488
 7559.92807 0.6653866 0.0857328
 7567.47570 0.6736439 0.0862552
 7575.05983 0.6755089 0.0866235
 7582.62527 0.6400127 0.0868582
 7590.20940 0.6597591 0.0869676
 7597.79264 0.6876427 0.0869780
 7605.39458 0.6962138 0.0869335
 7612.99740 0.6955869 0.0868613
 7620.61714 0.6813775 0.0867740
 7628.23777 0.7001639 0.0867198
 7635.87620 0.7241239 0.0866831
 7643.49683 0.7335238 0.0866874
 7651.15306 0.7178599 0.0868556
 7658.79149 0.7108436 0.0872462
 7666.44862 0.7099046 0.0878711
 7674.12354 0.7257717 0.0887015
 7681.79847 0.7208832 0.0879842
 7689.47340 0.7286268 0.0867168
 7697.16702 0.7423054 0.0858685
 7704.85975 0.7759613 0.0852638
 7712.57117 0.8124849 0.0846699
 7720.28260 0.8142589 0.0840335
 7728.01272 0.7990426 0.0833297
 7735.74194 0.8069409 0.0823412
 7743.47206 0.7881434 0.0816219
 7751.21998 0.8087741 0.0808564
 7758.96790 0.8176435 0.0801054
 7766.73362 0.8361050 0.0795640
 7774.50024 0.8262202 0.0790042
 7782.26596 0.8300491 0.0781885
 7790.05038 0.8424150 0.0773963
 7797.83479 0.8659913 0.0773457
 7805.63790 0.8509946 0.0772007
 7813.44012 0.8667921 0.0762759
 7821.26104 0.8641772 0.0751473
 7829.08195 0.8798681 0.0744039
 7836.90286 0.8661366 0.0739521
 7844.74158 0.8581778 0.0735509
 7852.59899 0.8640371 0.0733602
 7860.43859 0.8657978 0.0733359
 7868.31381 0.8636988 0.0731947
 7876.17121 0.8677103 0.0730754
 7884.04643 0.8639842 0.0733098
 7891.94033 0.8868951 0.0734998
 7899.83424 0.8836550 0.0736031
 7907.72814 0.8779418 0.0738144
 7915.63985 0.8791312 0.0740791
 7923.55156 0.8842914 0.0740635
 7931.48196 0.8910205 0.0741771
 7939.41237 0.8735840 0.0742821
 7947.34277 0.8575999 0.0743994
 7955.29097 0.8587647 0.0744444
 7963.25787 0.8624925 0.0741059
 7971.20608 0.8615641 0.0739413
 7979.19078 0.8539926 0.0737492
 7987.15768 0.8627259 0.0734910
 7995.14238 0.8619218 0.0731036
 8003.14578 0.8517998 0.0723331
 8011.14917 0.8718958 0.0717800
 8019.17037 0.8635459 0.0712108
 8027.17376 0.8528439 0.0706336
 8035.21277 0.8382657 0.0698508
 8043.25266 0.8301094 0.0692463
 8051.29255 0.8309736 0.0686644
 8059.33155 0.8491680 0.0681197
 8067.40794 0.8395948 0.0675910
 8075.46563 0.8447502 0.0672735
 8083.54202 0.8580332 0.0669445
 8091.63621 0.8722580 0.0666025
 8099.71260 0.8888324 0.0663011
 8107.82459 0.9069104 0.0664382
 8115.91878 0.8972340 0.0660411
 8124.04947 0.9170811 0.0655320
 8132.16235 0.9394460 0.0649233
 8140.31174 0.9475348 0.0648624
 8148.44242 0.9535073 0.0646292
 8156.59091 0.9674050 0.0641947
 8164.75810 0.9944841 0.0640026
 8172.90748 1.0069649 0.0638964
 8181.09246 0.9952717 0.0636242
 8189.25965 0.9745259 0.0633323
 8197.46333 0.9804228 0.0632400
 8205.64921 1.0074954 0.0632130
 8213.85289 0.9937400 0.0629575
 8222.07437 0.9813777 0.0629133
 8230.29674 0.9455952 0.0628323
 8238.53692 0.9264662 0.0626121
 8246.75840 0.9123075 0.0625049
 8255.01727 0.8962402 0.0626522
 8263.27525 0.8783838 0.0627591
 8271.53412 0.8795533 0.0625633
 8279.80990 0.8634046 0.0621256
 8288.08658 0.8519620 0.0622460
 8296.38194 0.8464171 0.0623545
 8304.67642 0.8276665 0.0619912
 8312.97179 0.8102676 0.0618965
 8321.28407 0.8035483 0.0616937
 8329.61593 0.8199719 0.0617755
 8337.94690 0.8122205 0.0620505
 8346.27876 0.8068923 0.0624359
 8354.62754 0.8133230 0.0626336
 8362.97721 0.8152485 0.0617066
 8371.34556 0.8348146 0.0616810
 8379.71303 0.8385285 0.0617460
 8388.09920 0.8294696 0.0617117
 8396.48447 0.8354370 0.0617441
 8404.88932 0.8445240 0.0619930
 8413.29329 0.8568201 0.0622875
 8421.69725 0.8596275 0.0626121
 8430.11991 0.8683212 0.0631203
 8438.56037 0.8749786 0.0632701
 8447.00173 0.8816648 0.0631402
 8455.44219 0.9065101 0.0632900
 8463.90134 0.9276409 0.0632692
 8472.35961 0.9283016 0.0631697
 8480.83657 0.9231212 0.0629233
 8489.31441 0.9605775 0.0627969
 8497.80918 0.9515154 0.0626412
 8506.30483 0.9545261 0.0623328
 8514.81828 0.9737133 0.0617060
 8523.31393 0.9863799 0.0613383
 8531.84519 0.9807008 0.0606130
 8540.37734 0.9733449 0.0600905
 8548.92729 0.9507793 0.0594034
 8557.47724 0.9426824 0.0588719
 8566.02719 0.9625870 0.0582475
 8574.59584 0.9424236 0.0576469
 8583.16448 0.9135301 0.0565776
 8591.75093 0.9114423 0.0557184
 8600.33737 0.9027620 0.0548233
 8608.94162 0.9050866 0.0544307
 8617.56457 0.8937919 0.0537516
 8626.16971 0.8691967 0.0529246
 8634.79265 0.8711721 0.0524249
 8643.43429 0.8827889 0.0520727
 8652.07504 0.8821185 0.0520333
 8660.73448 0.8865647 0.0518547
 8669.39392 0.8863196 0.0519987
 8678.07205 0.8891022 0.0521020
 8686.73149 0.8969953 0.0516372
 8695.42743 0.8676204 0.0511781
 8704.12247 0.8588948 0.0510025
